!@!!GADDS PLOTSO FILE: Chi integration type
!@!!Title/SampleName: LiMn2O4 Li1 to Li0 to Li0.8
!@!!Comment: ?. Li1 to Li0.6 map
!@!!User: Bruker Instrument Administrator
!@!!Site: University of Illinois Chicago
!@!!Frame: map-222_01_000.gfrm
!@!!Wavelengths    1.54184   1.54056   1.54439
!@!!Frame angles: 2Theta: 41.250 Omega: 30.000 Phi: 0.000 Chi: 90.000
!@!!Integration range: 2Theta: 32.500 to 52.500  Gamma: -105.000 to -75.000
!@!!Integration method: bin normalized
!@!N
!@!SS
!@!M
!@!L 0.0 0.0 0.0 0.0
!@!XDegrees
!@!YCounts
32.500 2.811385
32.505 2.548474
32.510 1.909519
32.515 2.027638
32.520 1.616227
32.525 1.93636
32.530 2.065426
32.535 1.92154
32.540 1.691572
32.545 1.321617
32.550 1.347509
32.555 1.208274
32.560 0.881921
32.565 1.091939
32.570 1.014243
32.575 1.69421
32.580 1.652496
32.585 1.868598
32.590 1.637249
32.595 1.978045
32.600 2.106508
32.605 2.762987
32.610 2.868302
32.615 2.727455
32.620 2.734704
32.625 2.303873
32.630 2.143766
32.635 2.448622
32.640 2.281253
32.645 2.714431
32.650 2.463646
32.655 2.03153
32.660 2.216928
32.665 2.257304
32.670 2.501003
32.675 2.53058
32.680 2.087605
32.685 1.724876
32.690 1.514288
32.695 1.637779
32.700 1.885959
32.705 1.8177
32.710 1.662739
32.715 1.28605
32.720 1.270238
32.725 1.501496
32.730 1.730888
32.735 1.651263
32.740 1.660998
32.745 1.72835
32.750 2.031402
32.755 1.846215
32.760 2.189563
32.765 2.890475
32.770 3.054487
32.775 3.544146
32.780 2.354364
32.785 2.239192
32.790 2.124461
32.795 2.232041
32.800 2.544574
32.805 2.856823
32.810 2.513997
32.815 2.623103
32.820 2.012256
32.825 1.946123
32.830 2.735543
32.835 3.036657
32.840 2.908212
32.845 2.012306
32.850 1.117997
32.855 1.079928
32.860 1.379031
32.865 1.570559
32.870 1.731163
32.875 1.748366
32.880 1.66408
32.885 2.464752
32.890 2.379948
32.895 2.344032
32.900 1.355253
32.905 0.835382
32.910 0.983546
32.915 1.840293
32.920 2.056498
32.925 2.028665
32.930 1.857757
32.935 1.580085
32.940 1.892447
32.945 1.949763
32.950 1.924448
32.955 2.059574
32.960 1.839946
32.965 2.058621
32.970 2.287995
32.975 2.285771
32.980 2.493474
32.985 2.033684
32.990 2.088506
32.995 2.532315
33.000 2.58084
33.005 2.317573
33.010 2.046997
33.015 1.904076
33.020 1.887797
33.025 1.976904
33.030 1.718689
33.035 1.966
33.040 2.181205
33.045 2.27164
33.050 2.228913
33.055 2.081868
33.060 2.860617
33.065 3.06061
33.070 3.081808
33.075 2.74353
33.080 2.008913
33.085 1.789123
33.090 1.527107
33.095 1.343765
33.100 1.544002
33.105 1.653951
33.110 1.665251
33.115 1.607162
33.120 2.014122
33.125 2.180633
33.130 2.416247
33.135 2.283493
33.140 2.566213
33.145 2.962679
33.150 3.211386
33.155 3.342419
33.160 3.181798
33.165 2.810562
33.170 2.289424
33.175 2.003448
33.180 1.906805
33.185 1.781113
33.190 1.680896
33.195 1.536222
33.200 1.96531
33.205 2.29162
33.210 2.583554
33.215 2.68345
33.220 2.599604
33.225 1.945741
33.230 1.915102
33.235 1.59592
33.240 1.749651
33.245 2.177813
33.250 2.262896
33.255 2.071298
33.260 1.563313
33.265 1.561237
33.270 1.724954
33.275 2.478683
33.280 2.173239
33.285 1.80287
33.290 1.493166
33.295 1.326966
33.300 1.439674
33.305 1.437478
33.310 1.491453
33.315 2.152813
33.320 2.244745
33.325 2.796825
33.330 2.688107
33.335 3.23882
33.340 3.096029
33.345 3.332183
33.350 3.010044
33.355 2.00902
33.360 2.266971
33.365 1.911936
33.370 2.596666
33.375 2.263604
33.380 1.669357
33.385 1.831967
33.390 2.148924
33.395 2.899623
33.400 2.782145
33.405 2.474828
33.410 1.687276
33.415 1.485357
33.420 2.00285
33.425 2.383433
33.430 2.485097
33.435 2.114358
33.440 1.367971
33.445 1.243662
33.450 1.464201
33.455 1.626176
33.460 1.854825
33.465 2.372579
33.470 2.031553
33.475 1.770683
33.480 1.417262
33.485 2.175099
33.490 2.965214
33.495 3.574176
33.500 2.941881
33.505 2.335856
33.510 2.130288
33.515 1.772431
33.520 2.074521
33.525 2.360294
33.530 3.036277
33.535 3.480418
33.540 2.902571
33.545 2.364999
33.550 2.32375
33.555 2.143392
33.560 2.293307
33.565 2.51416
33.570 2.191761
33.575 2.127459
33.580 1.648456
33.585 1.776771
33.590 1.804155
33.595 2.181945
33.600 2.067716
33.605 1.835519
33.610 1.913142
33.615 1.733171
33.620 1.655045
33.625 1.604595
33.630 2.21944
33.635 2.625423
33.640 3.460356
33.645 2.949416
33.650 2.302659
33.655 1.640044
33.660 1.686963
33.665 2.017475
33.670 2.278417
33.675 1.989909
33.680 1.987755
33.685 1.946331
33.690 2.63716
33.695 3.12808
33.700 3.327117
33.705 3.696608
33.710 3.387685
33.715 2.905001
33.720 2.753541
33.725 3.094359
33.730 3.29263
33.735 3.559485
33.740 3.048894
33.745 2.913794
33.750 3.149056
33.755 3.114097
33.760 2.646439
33.765 1.998175
33.770 1.2639
33.775 1.32501
33.780 1.682509
33.785 2.190647
33.790 1.854667
33.795 1.887591
33.800 1.717511
33.805 1.95318
33.810 2.16865
33.815 1.85609
33.820 1.710132
33.825 1.533969
33.830 1.959308
33.835 2.335968
33.840 2.742681
33.845 2.406729
33.850 2.565916
33.855 2.264661
33.860 2.483909
33.865 2.036185
33.870 1.90401
33.875 1.857726
33.880 1.924419
33.885 2.272704
33.890 2.440264
33.895 2.723044
33.900 2.598328
33.905 1.872169
33.910 1.291097
33.915 0.831721
33.920 1.026774
33.925 1.688029
33.930 2.30628
33.935 2.4898
33.940 2.100461
33.945 1.929591
33.950 1.73945
33.955 1.881505
33.960 2.2677
33.965 2.744246
33.970 3.114319
33.975 3.147403
33.980 2.597946
33.985 1.95768
33.990 2.455916
33.995 2.910439
34.000 3.188774
34.005 2.84097
34.010 1.860643
34.015 1.91013
34.020 2.039755
34.025 2.410379
34.030 3.002384
34.035 2.258056
34.040 2.085423
34.045 2.312992
34.050 2.887066
34.055 3.322384
34.060 3.078696
34.065 2.42616
34.070 2.336168
34.075 2.15587
34.080 1.650799
34.085 1.782013
34.090 2.401681
34.095 3.097208
34.100 2.923768
34.105 2.385542
34.110 1.890994
34.115 1.923977
34.120 2.124326
34.125 2.142085
34.130 2.387779
34.135 2.639043
34.140 3.097237
34.145 3.111128
34.150 3.560314
34.155 3.398277
34.160 2.831676
34.165 2.313054
34.170 2.056942
34.175 2.107793
34.180 2.869691
34.185 3.007997
34.190 3.176263
34.195 2.669557
34.200 2.494987
34.205 2.342047
34.210 2.172427
34.215 1.891929
34.220 1.70346
34.225 1.640022
34.230 1.950446
34.235 1.730062
34.240 1.453722
34.245 1.424136
34.250 1.648132
34.255 2.149189
34.260 2.560857
34.265 2.766728
34.270 2.64276
34.275 2.898283
34.280 2.642365
34.285 2.983773
34.290 3.0147
34.295 3.175755
34.300 2.625074
34.305 2.40908
34.310 2.068793
34.315 2.281241
34.320 2.643878
34.325 2.812941
34.330 2.654993
34.335 2.468116
34.340 1.998607
34.345 2.262978
34.350 2.175793
34.355 2.774407
34.360 3.470771
34.365 3.407641
34.370 3.015912
34.375 2.292913
34.380 1.713922
34.385 2.100698
34.390 2.470622
34.395 2.446327
34.400 2.563694
34.405 1.83019
34.410 2.066341
34.415 1.85768
34.420 1.815395
34.425 2.031421
34.430 2.515199
34.435 2.447072
34.440 2.037913
34.445 1.811841
34.450 1.905914
34.455 1.82458
34.460 1.808149
34.465 1.885171
34.470 2.033929
34.475 2.152952
34.480 1.730604
34.485 1.628651
34.490 1.584419
34.495 1.92308
34.500 2.122132
34.505 2.373611
34.510 2.070438
34.515 1.722591
34.520 1.776646
34.525 2.091827
34.530 2.453618
34.535 2.470078
34.540 1.930864
34.545 2.283667
34.550 2.021648
34.555 2.375044
34.560 1.893035
34.565 1.637577
34.570 1.110129
34.575 1.062934
34.580 0.976463
34.585 1.202343
34.590 1.590086
34.595 1.826215
34.600 2.351882
34.605 2.216632
34.610 2.036249
34.615 2.314038
34.620 2.340207
34.625 2.651362
34.630 2.761591
34.635 2.869496
34.640 2.388
34.645 2.771281
34.650 2.370839
34.655 2.98569
34.660 2.963591
34.665 2.900549
34.670 3.093775
34.675 2.883157
34.680 2.592875
34.685 2.286115
34.690 2.011929
34.695 1.942036
34.700 1.627823
34.705 1.345925
34.710 1.302835
34.715 1.374168
34.720 1.464816
34.725 2.107878
34.730 2.11828
34.735 2.739124
34.740 2.465009
34.745 2.691139
34.750 2.113238
34.755 1.845785
34.760 2.352612
34.765 2.477816
34.770 2.428455
34.775 2.198946
34.780 2.086755
34.785 2.01603
34.790 1.921979
34.795 1.727655
34.800 2.297301
34.805 2.745454
34.810 2.931039
34.815 2.544328
34.820 2.858884
34.825 3.301371
34.830 3.754765
34.835 3.604916
34.840 3.106026
34.845 2.186323
34.850 2.059677
34.855 1.748569
34.860 1.994175
34.865 2.352412
34.870 1.916799
34.875 1.648363
34.880 1.715961
34.885 2.574627
34.890 2.836507
34.895 2.69654
34.900 2.330714
34.905 1.809489
34.910 1.854407
34.915 2.221856
34.920 2.746107
34.925 3.156791
34.930 3.41222
34.935 3.307584
34.940 3.10841
34.945 2.719167
34.950 1.601651
34.955 0.956068
34.960 0.949244
34.965 1.261396
34.970 1.556886
34.975 1.619866
34.980 1.79445
34.985 2.071738
34.990 2.562043
34.995 2.149972
35.000 1.853092
35.005 1.605821
35.010 1.570632
35.015 1.758296
35.020 1.752492
35.025 1.919542
35.030 1.861605
35.035 2.261451
35.040 1.649791
35.045 1.811194
35.050 1.271428
35.055 1.821782
35.060 1.70875
35.065 1.503462
35.070 1.566287
35.075 1.305532
35.080 1.666736
35.085 1.716893
35.090 1.93787
35.095 2.40875
35.100 2.621209
35.105 2.663227
35.110 2.143528
35.115 1.922091
35.120 1.947453
35.125 2.149942
35.130 2.400721
35.135 1.986182
35.140 1.871068
35.145 2.032299
35.150 2.44085
35.155 2.972705
35.160 2.345253
35.165 1.903674
35.170 1.368905
35.175 1.045832
35.180 1.766272
35.185 2.042569
35.190 1.955885
35.195 1.694106
35.200 1.802592
35.205 2.555297
35.210 3.117668
35.215 2.786222
35.220 2.036488
35.225 1.279707
35.230 1.331169
35.235 1.58659
35.240 1.668241
35.245 1.450949
35.250 1.258327
35.255 1.399648
35.260 2.12538
35.265 2.821577
35.270 3.41176
35.275 3.161517
35.280 2.790014
35.285 2.532052
35.290 2.233524
35.295 1.990696
35.300 1.755853
35.305 1.781611
35.310 2.453453
35.315 2.584159
35.320 2.597782
35.325 2.034125
35.330 1.645367
35.335 1.674163
35.340 1.845606
35.345 2.412831
35.350 2.39889
35.355 2.755957
35.360 2.416524
35.365 2.998091
35.370 3.306309
35.375 3.281353
35.380 3.34685
35.385 2.497216
35.390 2.40405
35.395 2.362216
35.400 2.43133
35.405 3.166592
35.410 2.605613
35.415 2.95364
35.420 2.354534
35.425 1.703447
35.430 2.129649
35.435 2.171081
35.440 2.554428
35.445 2.390702
35.450 2.208677
35.455 1.966805
35.460 2.088922
35.465 2.037277
35.470 2.209273
35.475 2.599179
35.480 2.711663
35.485 3.097077
35.490 2.982946
35.495 3.003716
35.500 2.768268
35.505 2.772567
35.510 2.53295
35.515 3.005862
35.520 2.862616
35.525 2.715458
35.530 2.187332
35.535 1.909258
35.540 1.896448
35.545 1.93584
35.550 2.321548
35.555 2.538815
35.560 2.884604
35.565 2.943009
35.570 2.624919
35.575 2.384106
35.580 2.087508
35.585 2.311853
35.590 2.371571
35.595 2.264702
35.600 2.24948
35.605 2.080981
35.610 1.967111
35.615 2.067335
35.620 2.151356
35.625 2.484297
35.630 2.629782
35.635 2.687665
35.640 2.478916
35.645 2.615615
35.650 2.249765
35.655 2.418944
35.660 2.195466
35.665 2.012371
35.670 1.863052
35.675 1.830499
35.680 2.125566
35.685 2.172458
35.690 2.012626
35.695 1.917149
35.700 1.883813
35.705 2.284145
35.710 2.614022
35.715 2.581573
35.720 2.362523
35.725 1.82904
35.730 1.557153
35.735 1.75507
35.740 1.832104
35.745 2.589624
35.750 3.257788
35.755 3.5343
35.760 2.992935
35.765 2.517227
35.770 2.384528
35.775 2.64846
35.780 2.927972
35.785 2.423321
35.790 1.972113
35.795 2.036738
35.800 2.321405
35.805 2.685386
35.810 2.886448
35.815 2.49859
35.820 2.684628
35.825 2.191472
35.830 2.019147
35.835 1.925265
35.840 1.695794
35.845 2.098106
35.850 2.036549
35.855 1.754123
35.860 2.322249
35.865 2.281672
35.870 2.756219
35.875 2.836991
35.880 2.913386
35.885 2.641387
35.890 2.060882
35.895 1.709521
35.900 1.373438
35.905 2.090921
35.910 3.246391
35.915 4.135427
35.920 4.757084
35.925 3.790967
35.930 3.052813
35.935 2.410719
35.940 2.590284
35.945 2.984272
35.950 3.056909
35.955 3.015774
35.960 2.405718
35.965 2.513809
35.970 2.557269
35.975 2.700648
35.980 2.956092
35.985 3.068586
35.990 3.619845
35.995 3.258925
36.000 3.494836
36.005 2.923977
36.010 3.379607
36.015 3.359801
36.020 2.945277
36.025 2.680163
36.030 2.46174
36.035 2.936163
36.040 3.391063
36.045 3.263966
36.050 2.915308
36.055 2.327654
36.060 1.859929
36.065 2.046998
36.070 2.150364
36.075 2.246961
36.080 2.693781
36.085 2.893126
36.090 2.585461
36.095 2.401987
36.100 2.432497
36.105 2.649875
36.110 3.262945
36.115 2.526223
36.120 2.752384
36.125 3.057072
36.130 3.897932
36.135 3.911699
36.140 3.406011
36.145 2.916661
36.150 2.989321
36.155 2.872818
36.160 3.071086
36.165 2.574163
36.170 2.633992
36.175 2.639642
36.180 2.633346
36.185 2.8832
36.190 3.216094
36.195 3.370449
36.200 3.028146
36.205 3.399518
36.210 3.47614
36.215 3.542229
36.220 3.596373
36.225 2.830383
36.230 3.582766
36.235 3.584336
36.240 3.886326
36.245 3.067035
36.250 2.282693
36.255 2.27349
36.260 1.943296
36.265 2.277241
36.270 2.017213
36.275 1.845358
36.280 2.450669
36.285 3.540025
36.290 3.679249
36.295 3.691321
36.300 2.842657
36.305 2.416063
36.310 2.684929
36.315 2.143514
36.320 1.939862
36.325 1.574731
36.330 1.898738
36.335 2.108231
36.340 2.498838
36.345 2.360788
36.350 2.809054
36.355 2.953162
36.360 3.173108
36.365 2.958902
36.370 2.261314
36.375 2.339432
36.380 2.934659
36.385 3.713766
36.390 4.407034
36.395 3.697796
36.400 3.41689
36.405 3.700046
36.410 4.726459
36.415 5.056285
36.420 5.03078
36.425 4.140248
36.430 3.743877
36.435 3.736657
36.440 3.116113
36.445 2.787256
36.450 2.689267
36.455 2.508934
36.460 2.060755
36.465 1.825562
36.470 2.051643
36.475 3.072298
36.480 3.706434
36.485 3.686242
36.490 2.979918
36.495 2.158717
36.500 2.132415
36.505 2.662599
36.510 3.378716
36.515 3.137905
36.520 3.338419
36.525 3.27711
36.530 3.626994
36.535 3.111489
36.540 2.23048
36.545 2.02168
36.550 1.974774
36.555 2.262173
36.560 2.024049
36.565 1.975619
36.570 1.965605
36.575 2.54953
36.580 2.732672
36.585 3.754936
36.590 3.614216
36.595 3.886958
36.600 3.424542
36.605 2.794502
36.610 2.474804
36.615 2.248839
36.620 2.476515
36.625 2.5324
36.630 2.058211
36.635 1.948561
36.640 1.875631
36.645 1.898915
36.650 2.131341
36.655 1.930035
36.660 1.704088
36.665 1.991503
36.670 2.3337
36.675 2.516656
36.680 2.684766
36.685 2.673591
36.690 2.259416
36.695 2.286762
36.700 1.939125
36.705 1.727785
36.710 2.247058
36.715 2.208143
36.720 2.892306
36.725 2.931299
36.730 3.020399
36.735 3.736497
36.740 3.967358
36.745 3.530679
36.750 2.473852
36.755 1.14772
36.760 0.876969
36.765 1.222952
36.770 1.38203
36.775 1.821852
36.780 2.651213
36.785 3.549697
36.790 4.156339
36.795 4.137226
36.800 3.288811
36.805 2.357643
36.810 1.953465
36.815 1.765787
36.820 1.958322
36.825 2.54184
36.830 2.69343
36.835 2.658165
36.840 1.960577
36.845 1.877011
36.850 2.209982
36.855 2.520194
36.860 3.078043
36.865 3.096652
36.870 2.643076
36.875 2.709933
36.880 2.099748
36.885 2.274152
36.890 2.130336
36.895 2.004944
36.900 2.038539
36.905 2.285509
36.910 2.498862
36.915 2.392699
36.920 2.03394
36.925 2.260434
36.930 2.184391
36.935 2.989008
36.940 3.676003
36.945 4.258316
36.950 4.174421
36.955 3.824565
36.960 3.483891
36.965 2.845372
36.970 2.401711
36.975 1.643455
36.980 1.850408
36.985 2.1278
36.990 2.955725
36.995 2.743457
37.000 2.409112
37.005 2.300931
37.010 2.539277
37.015 3.062679
37.020 2.866284
37.025 2.613812
37.030 2.108174
37.035 2.262182
37.040 2.318149
37.045 2.473295
37.050 2.248996
37.055 1.791879
37.060 1.360646
37.065 1.707773
37.070 2.280869
37.075 2.717886
37.080 2.242408
37.085 2.067315
37.090 1.924789
37.095 2.384999
37.100 2.673412
37.105 2.740263
37.110 2.731139
37.115 2.618591
37.120 3.034903
37.125 2.777654
37.130 2.378372
37.135 2.471406
37.140 2.458921
37.145 2.448601
37.150 2.447256
37.155 1.998998
37.160 2.068201
37.165 2.149166
37.170 1.97518
37.175 2.356562
37.180 3.322104
37.185 3.445746
37.190 3.284965
37.195 2.692977
37.200 2.494706
37.205 2.431575
37.210 2.44784
37.215 1.529649
37.220 1.371296
37.225 2.277841
37.230 2.636302
37.235 3.742639
37.240 3.554946
37.245 3.67694
37.250 3.136245
37.255 3.15387
37.260 2.895429
37.265 3.123662
37.270 2.590687
37.275 2.535092
37.280 2.323992
37.285 2.577987
37.290 2.716996
37.295 2.647936
37.300 2.392778
37.305 2.159879
37.310 2.077982
37.315 2.410807
37.320 2.364078
37.325 1.993909
37.330 1.803229
37.335 2.374711
37.340 2.793814
37.345 3.163913
37.350 2.978723
37.355 2.895957
37.360 2.704765
37.365 3.147126
37.370 3.16727
37.375 3.633962
37.380 3.848284
37.385 3.096451
37.390 2.746142
37.395 2.247359
37.400 2.256845
37.405 2.182048
37.410 2.130669
37.415 2.542996
37.420 2.94565
37.425 2.976743
37.430 2.716543
37.435 2.314915
37.440 2.228446
37.445 2.297327
37.450 2.094578
37.455 2.154933
37.460 1.829418
37.465 2.3165
37.470 2.800972
37.475 2.88712
37.480 3.053466
37.485 2.659589
37.490 2.228359
37.495 2.634013
37.500 2.178531
37.505 2.896851
37.510 2.851627
37.515 2.692652
37.520 2.601825
37.525 2.261159
37.530 2.824449
37.535 3.018677
37.540 3.887741
37.545 3.32932
37.550 3.14259
37.555 2.116529
37.560 1.892038
37.565 1.630161
37.570 1.656567
37.575 1.793982
37.580 2.228397
37.585 2.617378
37.590 2.890327
37.595 3.302955
37.600 2.578552
37.605 2.55267
37.610 1.965304
37.615 1.972523
37.620 2.001014
37.625 2.431396
37.630 2.814329
37.635 3.145788
37.640 2.771639
37.645 2.684009
37.650 2.464801
37.655 2.829512
37.660 2.291905
37.665 2.018047
37.670 2.825336
37.675 3.524719
37.680 4.104998
37.685 3.41171
37.690 2.584939
37.695 2.357953
37.700 2.231765
37.705 2.397891
37.710 2.332809
37.715 2.769019
37.720 2.763832
37.725 2.852772
37.730 2.443405
37.735 2.211324
37.740 2.240195
37.745 2.210719
37.750 2.346494
37.755 1.980862
37.760 1.906502
37.765 1.996158
37.770 2.059299
37.775 2.355546
37.780 2.221106
37.785 2.524037
37.790 2.731525
37.795 3.406809
37.800 3.974848
37.805 4.591086
37.810 4.099317
37.815 3.174821
37.820 2.446555
37.825 1.998318
37.830 2.04228
37.835 1.894028
37.840 1.605645
37.845 1.992154
37.850 2.369319
37.855 2.850412
37.860 2.785047
37.865 2.637163
37.870 2.550581
37.875 2.654801
37.880 2.523934
37.885 1.852545
37.890 1.899179
37.895 2.357692
37.900 3.216853
37.905 3.312874
37.910 2.921239
37.915 1.987618
37.920 1.505774
37.925 1.652398
37.930 2.326639
37.935 2.225697
37.940 2.157935
37.945 2.073725
37.950 2.734379
37.955 3.86476
37.960 3.5521
37.965 2.954651
37.970 2.175985
37.975 1.688693
37.980 2.280825
37.985 2.332143
37.990 2.547815
37.995 2.655744
38.000 2.758943
38.005 2.972397
38.010 3.177815
38.015 2.641343
38.020 2.929041
38.025 3.578791
38.030 4.419904
38.035 4.581782
38.040 4.394467
38.045 3.831794
38.050 3.481572
38.055 3.600106
38.060 3.989728
38.065 4.400427
38.070 4.060421
38.075 3.323892
38.080 3.665925
38.085 3.858956
38.090 4.040236
38.095 3.295962
38.100 2.715026
38.105 3.295985
38.110 3.597787
38.115 3.603954
38.120 4.350933
38.125 3.979132
38.130 4.31545
38.135 3.715888
38.140 3.527421
38.145 3.684149
38.150 4.016676
38.155 4.08394
38.160 4.82546
38.165 5.31639
38.170 5.560515
38.175 5.15797
38.180 4.500405
38.185 4.496903
38.190 4.385526
38.195 4.815785
38.200 4.583768
38.205 4.216116
38.210 4.424362
38.215 3.764225
38.220 4.560393
38.225 4.948038
38.230 5.108239
38.235 4.684916
38.240 4.269966
38.245 4.226716
38.250 4.45166
38.255 5.020076
38.260 5.107914
38.265 4.522302
38.270 4.121247
38.275 3.119216
38.280 3.972798
38.285 4.755989
38.290 5.727387
38.295 5.983991
38.300 4.996228
38.305 4.622647
38.310 4.019244
38.315 4.239003
38.320 4.32036
38.325 3.636534
38.330 3.320711
38.335 2.690444
38.340 3.011347
38.345 3.618912
38.350 3.496643
38.355 3.968662
38.360 4.695624
38.365 4.309109
38.370 4.392801
38.375 3.232517
38.380 3.332452
38.385 3.886963
38.390 3.693265
38.395 3.887818
38.400 3.478867
38.405 3.943981
38.410 4.186576
38.415 4.078074
38.420 3.419238
38.425 3.064341
38.430 3.062771
38.435 3.023697
38.440 3.046776
38.445 2.569587
38.450 2.217365
38.455 2.280771
38.460 2.144927
38.465 2.224943
38.470 2.299443
38.475 2.162216
38.480 2.874229
38.485 3.375286
38.490 3.434982
38.495 3.109358
38.500 2.117696
38.505 2.243871
38.510 2.586298
38.515 2.900857
38.520 2.710366
38.525 2.609014
38.530 2.992403
38.535 3.346034
38.540 3.026388
38.545 2.857205
38.550 2.200605
38.555 2.332015
38.560 2.519199
38.565 2.875683
38.570 2.853227
38.575 2.817197
38.580 2.947023
38.585 2.586656
38.590 3.084228
38.595 2.63341
38.600 2.1372
38.605 2.439734
38.610 2.50479
38.615 2.776595
38.620 3.328674
38.625 2.856232
38.630 2.695256
38.635 2.51995
38.640 2.439723
38.645 2.132042
38.650 2.11826
38.655 2.216342
38.660 2.424236
38.665 2.656503
38.670 2.94661
38.675 3.164196
38.680 3.089718
38.685 3.003949
38.690 2.890411
38.695 2.506697
38.700 1.833593
38.705 1.952606
38.710 2.673217
38.715 3.539863
38.720 3.482844
38.725 2.51085
38.730 2.547707
38.735 2.745516
38.740 3.052587
38.745 2.863279
38.750 2.112114
38.755 1.649491
38.760 2.087811
38.765 2.523438
38.770 2.822722
38.775 3.521219
38.780 3.54238
38.785 3.626407
38.790 3.226221
38.795 2.882398
38.800 2.829127
38.805 2.719904
38.810 2.385261
38.815 2.124171
38.820 2.397961
38.825 2.985971
38.830 3.241323
38.835 3.342326
38.840 2.963646
38.845 3.265174
38.850 3.307776
38.855 3.650837
38.860 3.472823
38.865 3.009495
38.870 2.747633
38.875 2.599884
38.880 2.488527
38.885 2.288026
38.890 1.963591
38.895 1.999058
38.900 2.056413
38.905 2.246549
38.910 2.396894
38.915 2.636088
38.920 2.720396
38.925 2.860764
38.930 2.585658
38.935 2.56123
38.940 2.543149
38.945 2.555998
38.950 2.708712
38.955 2.475127
38.960 2.822443
38.965 2.733153
38.970 2.645112
38.975 2.903606
38.980 3.293162
38.985 4.20487
38.990 4.331807
38.995 4.220467
39.000 4.076278
39.005 4.320884
39.010 3.709787
39.015 2.802001
39.020 1.962962
39.025 2.320057
39.030 3.087746
39.035 2.975956
39.040 2.534363
39.045 2.088522
39.050 1.738533
39.055 2.377689
39.060 3.200583
39.065 3.479892
39.070 3.188991
39.075 2.460518
39.080 1.566417
39.085 1.910378
39.090 1.834748
39.095 2.059639
39.100 2.143134
39.105 2.382371
39.110 2.983543
39.115 2.637558
39.120 2.958055
39.125 2.571009
39.130 2.395066
39.135 2.371537
39.140 2.233974
39.145 2.033274
39.150 2.288169
39.155 2.070606
39.160 2.96726
39.165 3.867991
39.170 4.869753
39.175 5.334381
39.180 4.874316
39.185 4.574076
39.190 3.707066
39.195 3.388994
39.200 3.255003
39.205 3.3286
39.210 3.528684
39.215 3.660904
39.220 3.254046
39.225 2.480511
39.230 1.882572
39.235 1.584914
39.240 1.759693
39.245 1.847347
39.250 2.018384
39.255 2.264475
39.260 2.699482
39.265 2.744864
39.270 2.820564
39.275 3.00081
39.280 3.730373
39.285 4.425499
39.290 3.976658
39.295 2.780848
39.300 2.175664
39.305 2.024297
39.310 2.300733
39.315 2.715522
39.320 2.83082
39.325 2.766791
39.330 2.960955
39.335 2.714446
39.340 2.947516
39.345 2.880749
39.350 2.861299
39.355 2.895384
39.360 2.751566
39.365 3.447548
39.370 3.193009
39.375 3.307886
39.380 3.041974
39.385 2.87507
39.390 2.748388
39.395 2.697211
39.400 2.933523
39.405 3.484918
39.410 3.308327
39.415 3.334655
39.420 2.989977
39.425 2.624723
39.430 3.053273
39.435 3.395289
39.440 3.773636
39.445 3.638186
39.450 3.444037
39.455 2.970752
39.460 3.457245
39.465 3.836586
39.470 3.516847
39.475 3.321514
39.480 2.42062
39.485 2.374779
39.490 2.196672
39.495 2.510569
39.500 2.216955
39.505 2.413155
39.510 2.757752
39.515 3.138737
39.520 3.537299
39.525 3.168947
39.530 2.462499
39.535 1.868257
39.540 1.964893
39.545 2.155106
39.550 2.707165
39.555 3.329201
39.560 2.970195
39.565 3.170647
39.570 2.449483
39.575 2.565668
39.580 2.610762
39.585 2.881875
39.590 3.389637
39.595 3.150175
39.600 2.859848
39.605 2.43558
39.610 2.732393
39.615 2.835873
39.620 2.630299
39.625 2.282396
39.630 2.031176
39.635 2.200876
39.640 2.333092
39.645 2.187549
39.650 2.273075
39.655 1.851822
39.660 2.191427
39.665 2.275245
39.670 2.87483
39.675 3.429378
39.680 3.223688
39.685 3.090907
39.690 2.6765
39.695 2.871978
39.700 2.727664
39.705 2.794011
39.710 2.55512
39.715 2.349078
39.720 2.740368
39.725 2.857595
39.730 3.15928
39.735 3.357165
39.740 2.842108
39.745 2.521615
39.750 2.734379
39.755 3.319683
39.760 4.210642
39.765 5.008421
39.770 4.499691
39.775 4.069969
39.780 3.243606
39.785 3.388228
39.790 3.586975
39.795 4.212419
39.800 3.410188
39.805 2.976206
39.810 2.358709
39.815 2.381883
39.820 3.056138
39.825 3.16524
39.830 3.456456
39.835 3.17826
39.840 2.587427
39.845 2.196106
39.850 2.56396
39.855 3.171184
39.860 3.441992
39.865 3.208282
39.870 2.287613
39.875 1.732748
39.880 1.709056
39.885 1.404519
39.890 1.967881
39.895 2.136856
39.900 2.681854
39.905 2.368779
39.910 2.314682
39.915 3.00786
39.920 3.787628
39.925 4.132922
39.930 3.744119
39.935 3.035196
39.940 2.812535
39.945 2.625719
39.950 3.144127
39.955 3.430514
39.960 3.601027
39.965 3.206906
39.970 2.501454
39.975 2.035106
39.980 2.032363
39.985 2.668044
39.990 2.976214
39.995 2.922729
40.000 2.765681
40.005 2.886707
40.010 3.081189
40.015 3.52107
40.020 3.542735
40.025 3.333704
40.030 3.215839
40.035 3.010409
40.040 3.121155
40.045 3.294176
40.050 3.940066
40.055 4.251269
40.060 4.051867
40.065 3.966101
40.070 4.267854
40.075 4.617996
40.080 4.342629
40.085 4.071259
40.090 3.652281
40.095 3.7574
40.100 3.733007
40.105 3.672361
40.110 2.848911
40.115 2.629907
40.120 1.840703
40.125 1.13056
40.130 1.172104
40.135 0.970199
40.140 1.554931
40.145 1.943172
40.150 2.32311
40.155 2.385566
40.160 2.263385
40.165 2.2712
40.170 2.467399
40.175 2.94834
40.180 3.519999
40.185 3.639369
40.190 3.390676
40.195 2.828251
40.200 2.528218
40.205 2.008017
40.210 1.863247
40.215 1.776946
40.220 1.964856
40.225 2.194157
40.230 1.904712
40.235 1.820173
40.240 1.58296
40.245 1.568865
40.250 1.257498
40.255 1.624774
40.260 1.902867
40.265 2.245068
40.270 2.756401
40.275 3.400799
40.280 3.509523
40.285 3.039677
40.290 2.348347
40.295 2.390197
40.300 2.537611
40.305 2.644532
40.310 2.16947
40.315 1.665427
40.320 2.125046
40.325 2.442205
40.330 3.107506
40.335 2.927041
40.340 2.620452
40.345 2.526253
40.350 2.806851
40.355 3.840179
40.360 3.828473
40.365 3.769872
40.370 3.439915
40.375 3.347417
40.380 3.204542
40.385 2.991143
40.390 2.513206
40.395 2.333915
40.400 2.073648
40.405 1.909091
40.410 2.062616
40.415 2.515371
40.420 3.067848
40.425 3.117697
40.430 3.013681
40.435 2.708185
40.440 2.421013
40.445 2.551791
40.450 3.099867
40.455 3.13294
40.460 3.215783
40.465 2.384083
40.470 2.043174
40.475 2.081414
40.480 2.444517
40.485 3.167086
40.490 3.321173
40.495 2.923377
40.500 2.271259
40.505 1.624487
40.510 1.914841
40.515 2.716166
40.520 3.260886
40.525 3.323927
40.530 2.917354
40.535 2.789528
40.540 2.959788
40.545 2.932668
40.550 3.062235
40.555 2.598602
40.560 3.135452
40.565 2.810044
40.570 3.309787
40.575 3.026611
40.580 2.990825
40.585 2.96635
40.590 2.574984
40.595 2.864302
40.600 3.066299
40.605 3.336063
40.610 3.457246
40.615 3.437782
40.620 3.037162
40.625 3.189404
40.630 2.63636
40.635 2.276802
40.640 2.349729
40.645 2.338804
40.650 2.640169
40.655 2.983104
40.660 3.301103
40.665 3.71908
40.670 3.757284
40.675 3.512262
40.680 2.904896
40.685 2.752023
40.690 2.508354
40.695 2.534368
40.700 2.500795
40.705 2.478328
40.710 2.813003
40.715 2.828235
40.720 3.229643
40.725 3.447637
40.730 3.779886
40.735 3.935047
40.740 3.960835
40.745 4.149442
40.750 3.774623
40.755 2.939204
40.760 2.128409
40.765 1.776872
40.770 2.527753
40.775 3.426257
40.780 3.287951
40.785 3.082418
40.790 2.455074
40.795 2.758173
40.800 2.94212
40.805 3.204745
40.810 3.11627
40.815 3.507535
40.820 3.461375
40.825 4.000357
40.830 4.193399
40.835 3.898532
40.840 3.47556
40.845 2.831287
40.850 2.82638
40.855 3.461963
40.860 3.497811
40.865 3.141609
40.870 3.131288
40.875 3.343119
40.880 3.896531
40.885 3.53185
40.890 3.686726
40.895 3.037307
40.900 3.305541
40.905 3.132101
40.910 3.087253
40.915 3.125572
40.920 3.452524
40.925 3.125975
40.930 2.662128
40.935 2.540067
40.940 2.507827
40.945 2.921293
40.950 3.118021
40.955 3.140622
40.960 2.956147
40.965 2.38254
40.970 2.945089
40.975 3.119856
40.980 4.108661
40.985 4.26874
40.990 3.790836
40.995 3.443618
41.000 2.791033
41.005 2.468236
41.010 2.693158
41.015 2.699103
41.020 3.452521
41.025 3.620894
41.030 3.317239
41.035 3.150282
41.040 2.42283
41.045 2.566145
41.050 2.488107
41.055 2.929593
41.060 3.546327
41.065 4.326609
41.070 4.07699
41.075 3.586314
41.080 2.547929
41.085 2.127581
41.090 2.01424
41.095 2.263716
41.100 2.413022
41.105 2.533356
41.110 2.148797
41.115 2.044466
41.120 2.071602
41.125 2.143213
41.130 1.874221
41.135 1.994654
41.140 2.417463
41.145 2.743193
41.150 3.128965
41.155 2.486115
41.160 2.488226
41.165 2.728895
41.170 1.985225
41.175 2.016885
41.180 1.414513
41.185 1.654258
41.190 2.097833
41.195 2.571168
41.200 2.849413
41.205 3.134276
41.210 3.58266
41.215 3.440595
41.220 3.467185
41.225 3.00809
41.230 2.833071
41.235 2.691936
41.240 2.814441
41.245 2.561646
41.250 2.799528
41.255 2.75266
41.260 3.188873
41.265 3.33306
41.270 2.918062
41.275 2.724351
41.280 2.351151
41.285 2.695765
41.290 3.127547
41.295 3.231284
41.300 3.736741
41.305 3.735103
41.310 3.329221
41.315 3.153102
41.320 2.938944
41.325 3.492174
41.330 3.542781
41.335 4.031933
41.340 4.025609
41.345 4.027529
41.350 4.499796
41.355 3.884387
41.360 3.757794
41.365 3.603444
41.370 3.349136
41.375 3.284708
41.380 3.57454
41.385 3.599553
41.390 4.219841
41.395 4.164967
41.400 3.679504
41.405 2.8243
41.410 2.468307
41.415 2.174581
41.420 2.234444
41.425 2.557225
41.430 2.507664
41.435 2.889265
41.440 2.709652
41.445 2.437273
41.450 2.642004
41.455 2.800294
41.460 3.352211
41.465 4.145494
41.470 3.919562
41.475 3.474078
41.480 2.690342
41.485 2.466177
41.490 2.809728
41.495 2.986769
41.500 2.840802
41.505 2.75779
41.510 2.836758
41.515 2.956074
41.520 2.742292
41.525 3.085516
41.530 3.652683
41.535 3.921088
41.540 3.986035
41.545 3.13519
41.550 2.555874
41.555 2.628041
41.560 2.509768
41.565 2.776883
41.570 3.029206
41.575 3.151579
41.580 3.104062
41.585 3.11435
41.590 2.993032
41.595 3.078285
41.600 2.830329
41.605 2.167547
41.610 2.036637
41.615 2.267585
41.620 2.766501
41.625 3.547207
41.630 4.091568
41.635 3.65834
41.640 3.253767
41.645 2.19328
41.650 1.995793
41.655 2.767684
41.660 2.706215
41.665 3.230962
41.670 3.361461
41.675 4.358899
41.680 4.264169
41.685 4.073887
41.690 3.363051
41.695 3.242861
41.700 3.442194
41.705 3.213548
41.710 3.879526
41.715 3.636942
41.720 3.576157
41.725 3.132175
41.730 3.028695
41.735 2.996174
41.740 2.763802
41.745 2.738234
41.750 2.902563
41.755 3.069782
41.760 2.838998
41.765 2.58763
41.770 2.586602
41.775 3.027365
41.780 2.987975
41.785 2.772243
41.790 2.527314
41.795 1.9621
41.800 1.916547
41.805 2.018882
41.810 2.296817
41.815 2.580626
41.820 2.429274
41.825 2.359592
41.830 2.686319
41.835 2.765559
41.840 3.550434
41.845 3.789753
41.850 3.913167
41.855 3.442698
41.860 2.741671
41.865 2.502841
41.870 2.64751
41.875 2.297769
41.880 2.535742
41.885 2.606356
41.890 2.495701
41.895 3.077521
41.900 3.234995
41.905 3.447768
41.910 3.665038
41.915 3.334436
41.920 3.282349
41.925 3.184078
41.930 2.695105
41.935 2.267437
41.940 2.320367
41.945 2.756835
41.950 2.963625
41.955 2.375541
41.960 1.585911
41.965 1.252945
41.970 1.852415
41.975 2.777209
41.980 3.72897
41.985 3.81974
41.990 2.99589
41.995 2.40276
42.000 1.879375
42.005 1.960742
42.010 1.793374
42.015 1.828945
42.020 2.025387
42.025 2.332767
42.030 2.639686
42.035 2.365505
42.040 2.17331
42.045 2.292058
42.050 2.474214
42.055 2.644694
42.060 2.68679
42.065 2.247947
42.070 2.305237
42.075 2.40273
42.080 2.915642
42.085 3.58762
42.090 3.791965
42.095 4.171813
42.100 3.419129
42.105 3.532375
42.110 3.177638
42.115 3.377073
42.120 3.481818
42.125 3.160576
42.130 2.685571
42.135 2.440858
42.140 2.337787
42.145 2.075517
42.150 1.941726
42.155 2.592
42.160 3.165198
42.165 3.520958
42.170 3.614547
42.175 2.827481
42.180 2.928836
42.185 2.584286
42.190 2.78995
42.195 2.644411
42.200 2.501557
42.205 2.185826
42.210 2.120859
42.215 1.731216
42.220 1.997544
42.225 2.438143
42.230 3.148006
42.235 3.383941
42.240 3.012319
42.245 2.310541
42.250 1.797106
42.255 1.763534
42.260 2.074445
42.265 2.262442
42.270 2.694752
42.275 3.038765
42.280 3.167945
42.285 3.518831
42.290 2.978376
42.295 3.007197
42.300 2.424615
42.305 2.192001
42.310 1.846004
42.315 2.169122
42.320 2.190403
42.325 2.357968
42.330 2.053414
42.335 2.110447
42.340 2.238806
42.345 2.051417
42.350 2.0425
42.355 2.095125
42.360 2.965113
42.365 3.605932
42.370 3.868018
42.375 3.531592
42.380 3.438785
42.385 3.496417
42.390 2.941677
42.395 2.570782
42.400 2.238799
42.405 2.399987
42.410 2.524269
42.415 2.681291
42.420 2.472887
42.425 2.948091
42.430 3.250086
42.435 3.097275
42.440 2.462545
42.445 2.106565
42.450 2.495002
42.455 3.240228
42.460 3.612817
42.465 3.774015
42.470 3.30623
42.475 2.929696
42.480 2.556856
42.485 2.693991
42.490 2.854152
42.495 2.80305
42.500 2.809042
42.505 2.831788
42.510 3.103073
42.515 3.104778
42.520 3.834873
42.525 3.560549
42.530 3.520242
42.535 2.873312
42.540 2.608522
42.545 2.578122
42.550 3.07593
42.555 2.555485
42.560 2.012077
42.565 1.960022
42.570 2.008159
42.575 2.210303
42.580 2.730936
42.585 2.964004
42.590 3.306231
42.595 3.450219
42.600 2.727128
42.605 2.298889
42.610 2.285577
42.615 2.459855
42.620 2.331573
42.625 1.969526
42.630 2.076125
42.635 2.164802
42.640 2.466904
42.645 2.647685
42.650 2.667189
42.655 2.847813
42.660 2.807254
42.665 1.832364
42.670 2.082542
42.675 2.340402
42.680 2.621827
42.685 2.529895
42.690 2.256943
42.695 2.195659
42.700 2.497451
42.705 2.896621
42.710 2.703137
42.715 2.816657
42.720 2.156612
42.725 2.196634
42.730 2.541118
42.735 3.202962
42.740 3.659939
42.745 3.417935
42.750 2.618175
42.755 2.089062
42.760 1.615887
42.765 1.924858
42.770 2.469253
42.775 2.464772
42.780 2.992265
42.785 2.851982
42.790 3.213971
42.795 3.101757
42.800 2.158246
42.805 2.294076
42.810 2.246553
42.815 2.842876
42.820 2.686465
42.825 2.891368
42.830 2.587324
42.835 2.445438
42.840 2.42186
42.845 2.588583
42.850 2.82446
42.855 3.306526
42.860 3.394197
42.865 3.066191
42.870 2.725738
42.875 2.708136
42.880 2.999141
42.885 3.929166
42.890 4.32383
42.895 4.404732
42.900 4.786464
42.905 3.950932
42.910 3.054516
42.915 2.277871
42.920 2.141058
42.925 2.120133
42.930 2.678023
42.935 2.880305
42.940 2.817462
42.945 2.948476
42.950 2.396704
42.955 2.58651
42.960 2.760906
42.965 3.043652
42.970 3.583633
42.975 3.414935
42.980 3.741159
42.985 3.413231
42.990 3.077042
42.995 2.703218
43.000 2.444518
43.005 2.664814
43.010 3.251667
43.015 3.297712
43.020 3.08639
43.025 2.834622
43.030 2.642199
43.035 2.932253
43.040 3.136058
43.045 3.268608
43.050 3.073442
43.055 3.088023
43.060 2.869258
43.065 2.911346
43.070 2.135649
43.075 1.951987
43.080 1.832341
43.085 2.182623
43.090 2.312829
43.095 2.468305
43.100 2.742019
43.105 3.253258
43.110 3.358249
43.115 3.161522
43.120 2.703838
43.125 2.364103
43.130 2.254901
43.135 1.951294
43.140 1.976542
43.145 1.784087
43.150 1.770793
43.155 1.955834
43.160 1.821036
43.165 1.61047
43.170 1.878703
43.175 2.366322
43.180 3.469492
43.185 3.703334
43.190 3.665914
43.195 3.469151
43.200 2.946915
43.205 3.21879
43.210 2.832766
43.215 2.590081
43.220 2.483191
43.225 2.273499
43.230 2.511725
43.235 2.625395
43.240 2.881783
43.245 2.837016
43.250 3.090117
43.255 3.350315
43.260 3.904431
43.265 3.587997
43.270 3.27273
43.275 2.510906
43.280 2.10581
43.285 2.245624
43.290 2.309113
43.295 2.554204
43.300 2.52591
43.305 2.979217
43.310 3.152969
43.315 2.929801
43.320 2.818788
43.325 2.408478
43.330 2.527694
43.335 2.658283
43.340 2.82825
43.345 2.533466
43.350 2.498037
43.355 2.411284
43.360 2.624276
43.365 2.373828
43.370 1.852614
43.375 1.597076
43.380 1.783449
43.385 2.319566
43.390 2.969144
43.395 2.601837
43.400 2.42613
43.405 2.490472
43.410 3.065329
43.415 4.002286
43.420 4.037106
43.425 4.185021
43.430 3.102115
43.435 2.251069
43.440 1.719206
43.445 2.454482
43.450 2.860787
43.455 3.225282
43.460 3.102251
43.465 2.234057
43.470 3.010593
43.475 3.016704
43.480 3.112082
43.485 3.068394
43.490 2.21549
43.495 2.028765
43.500 2.070206
43.505 2.279179
43.510 2.728105
43.515 2.877336
43.520 2.908172
43.525 2.570302
43.530 2.098686
43.535 2.468636
43.540 2.2048
43.545 1.998443
43.550 1.684137
43.555 1.851132
43.560 1.983753
43.565 2.344866
43.570 2.341475
43.575 2.134677
43.580 2.096371
43.585 2.335631
43.590 2.669695
43.595 2.905769
43.600 3.153281
43.605 3.558093
43.610 3.386099
43.615 3.569064
43.620 2.935834
43.625 2.429591
43.630 1.968043
43.635 1.975721
43.640 1.971681
43.645 2.529267
43.650 3.077785
43.655 3.522379
43.660 4.229957
43.665 4.160767
43.670 3.854245
43.675 3.433459
43.680 2.840283
43.685 3.114688
43.690 3.256459
43.695 2.950607
43.700 2.715315
43.705 2.818294
43.710 2.692127
43.715 3.073192
43.720 2.904645
43.725 2.42953
43.730 2.259698
43.735 2.087438
43.740 2.86484
43.745 3.499054
43.750 3.750022
43.755 4.059244
43.760 3.600556
43.765 3.700188
43.770 3.155931
43.775 2.868975
43.780 3.066861
43.785 3.641904
43.790 4.423154
43.795 4.104538
43.800 3.317146
43.805 2.477603
43.810 2.561656
43.815 3.078115
43.820 3.548337
43.825 4.065357
43.830 3.721025
43.835 3.895935
43.840 3.482312
43.845 3.43883
43.850 3.299529
43.855 3.449216
43.860 2.853998
43.865 2.881392
43.870 2.293909
43.875 2.009492
43.880 1.979079
43.885 2.083533
43.890 1.948678
43.895 2.401173
43.900 2.666232
43.905 2.610529
43.910 3.378703
43.915 2.726405
43.920 2.726391
43.925 2.388646
43.930 2.220937
43.935 2.349354
43.940 2.588888
43.945 2.892598
43.950 3.041374
43.955 3.054403
43.960 2.823482
43.965 3.016846
43.970 3.699937
43.975 4.071765
43.980 4.140688
43.985 3.601926
43.990 2.966481
43.995 2.535655
44.000 2.586958
44.005 2.436755
44.010 2.364776
44.015 2.988844
44.020 3.278318
44.025 3.646111
44.030 3.812594
44.035 3.305844
44.040 2.884092
44.045 2.949269
44.050 3.069951
44.055 3.534384
44.060 3.768083
44.065 3.634035
44.070 3.989554
44.075 3.83185
44.080 3.897835
44.085 4.061722
44.090 3.473183
44.095 3.865419
44.100 3.841108
44.105 3.833395
44.110 3.659952
44.115 2.9445
44.120 2.296438
44.125 2.237965
44.130 3.155413
44.135 3.940674
44.140 4.045655
44.145 4.191539
44.150 4.641103
44.155 4.510936
44.160 4.250606
44.165 3.594098
44.170 3.681577
44.175 4.831359
44.180 5.187445
44.185 5.723205
44.190 5.354064
44.195 5.065003
44.200 5.08323
44.205 4.74211
44.210 4.064194
44.215 4.334715
44.220 5.003655
44.225 6.279992
44.230 7.168158
44.235 6.996756
44.240 6.884281
44.245 6.749786
44.250 6.535789
44.255 6.868958
44.260 7.079516
44.265 7.275654
44.270 6.686582
44.275 6.069655
44.280 6.480183
44.285 6.048806
44.290 6.49437
44.295 6.7877
44.300 7.058556
44.305 7.427392
44.310 7.414087
44.315 7.994675
44.320 8.079665
44.325 7.531087
44.330 7.359054
44.335 7.622543
44.340 8.018084
44.345 9.024157
44.350 8.19072
44.355 7.859343
44.360 7.845194
44.365 7.390955
44.370 7.429296
44.375 7.330711
44.380 6.394838
44.385 6.540153
44.390 7.169672
44.395 7.199924
44.400 7.31862
44.405 7.410126
44.410 7.241307
44.415 7.807917
44.420 8.414594
44.425 7.584961
44.430 7.848599
44.435 7.037403
44.440 7.356278
44.445 6.869061
44.450 6.562149
44.455 6.654869
44.460 6.713687
44.465 7.067032
44.470 7.128561
44.475 6.978327
44.480 7.781441
44.485 8.06954
44.490 8.634773
44.495 8.746556
44.500 8.177361
44.505 7.535287
44.510 7.583959
44.515 7.380475
44.520 7.226655
44.525 6.586812
44.530 6.04385
44.535 6.49226
44.540 7.423707
44.545 8.540393
44.550 7.89289
44.555 7.631808
44.560 5.870453
44.565 5.494144
44.570 6.29781
44.575 6.375447
44.580 7.686547
44.585 6.839758
44.590 6.277183
44.595 5.63924
44.600 5.702347
44.605 5.486683
44.610 5.97078
44.615 6.139585
44.620 5.920205
44.625 5.150811
44.630 4.466823
44.635 4.435194
44.640 4.742644
44.645 4.82191
44.650 4.894351
44.655 4.758454
44.660 4.672352
44.665 4.643975
44.670 5.11327
44.675 4.698048
44.680 5.269066
44.685 4.788483
44.690 4.707591
44.695 3.743897
44.700 3.262953
44.705 4.238978
44.710 4.698812
44.715 4.743174
44.720 4.616753
44.725 3.948767
44.730 4.309638
44.735 3.660964
44.740 3.390349
44.745 3.348644
44.750 3.619176
44.755 3.835346
44.760 3.936438
44.765 4.437216
44.770 4.606054
44.775 4.709876
44.780 4.895338
44.785 4.17168
44.790 4.762524
44.795 4.341794
44.800 5.037713
44.805 4.652502
44.810 4.042031
44.815 3.293979
44.820 2.729492
44.825 2.990367
44.830 3.381166
44.835 3.355613
44.840 3.291667
44.845 3.854962
44.850 4.250604
44.855 4.006599
44.860 3.593075
44.865 3.001473
44.870 3.076399
44.875 3.517825
44.880 3.341491
44.885 3.166708
44.890 3.417042
44.895 3.180515
44.900 3.472998
44.905 3.664229
44.910 3.253662
44.915 3.276059
44.920 3.158009
44.925 2.661121
44.930 2.932843
44.935 2.683607
44.940 3.114721
44.945 3.034224
44.950 3.381712
44.955 3.634433
44.960 3.238252
44.965 2.448469
44.970 1.883943
44.975 1.894792
44.980 2.756213
44.985 2.93155
44.990 3.021595
44.995 3.022869
45.000 3.352891
45.005 3.526636
45.010 3.610973
45.015 3.74774
45.020 3.829888
45.025 3.720495
45.030 2.970988
45.035 2.693123
45.040 2.420716
45.045 2.562983
45.050 2.426857
45.055 2.059592
45.060 2.065906
45.065 2.093607
45.070 2.843825
45.075 3.1394
45.080 2.686777
45.085 2.3602
45.090 2.099382
45.095 2.467492
45.100 2.843237
45.105 2.436823
45.110 2.690212
45.115 3.325789
45.120 3.67985
45.125 3.307286
45.130 2.905934
45.135 2.487779
45.140 2.49358
45.145 2.27538
45.150 2.497014
45.155 2.822984
45.160 2.762458
45.165 2.969682
45.170 2.809981
45.175 2.458646
45.180 2.323236
45.185 2.491939
45.190 2.668982
45.195 2.662351
45.200 2.278757
45.205 2.104484
45.210 2.79721
45.215 3.707337
45.220 3.83184
45.225 3.223561
45.230 2.639251
45.235 1.994309
45.240 2.137476
45.245 2.34305
45.250 2.95596
45.255 3.295131
45.260 3.501227
45.265 3.365544
45.270 2.699633
45.275 2.729563
45.280 2.398338
45.285 2.415356
45.290 2.652298
45.295 2.732058
45.300 2.847874
45.305 2.626816
45.310 2.17924
45.315 2.23095
45.320 2.526303
45.325 2.395865
45.330 2.21634
45.335 2.514471
45.340 2.843632
45.345 3.318794
45.350 3.158701
45.355 2.698638
45.360 2.28503
45.365 2.040294
45.370 2.338975
45.375 2.735883
45.380 2.407597
45.385 2.130673
45.390 1.97673
45.395 2.061894
45.400 2.213819
45.405 1.644055
45.410 1.958591
45.415 2.492329
45.420 2.835075
45.425 2.201366
45.430 2.218946
45.435 1.832647
45.440 2.252658
45.445 2.450168
45.450 2.137582
45.455 2.58655
45.460 2.360858
45.465 2.276379
45.470 2.392661
45.475 2.467297
45.480 2.675002
45.485 2.656019
45.490 2.80881
45.495 2.937516
45.500 3.071356
45.505 3.226757
45.510 3.142433
45.515 3.270914
45.520 2.869647
45.525 2.647774
45.530 3.078137
45.535 3.075384
45.540 3.198653
45.545 2.924082
45.550 2.771406
45.555 2.865408
45.560 2.241135
45.565 2.601995
45.570 2.607143
45.575 3.04362
45.580 3.292238
45.585 2.985753
45.590 3.185996
45.595 2.936553
45.600 2.879293
45.605 2.538338
45.610 2.099653
45.615 2.283061
45.620 2.463133
45.625 2.395285
45.630 2.339648
45.635 2.513533
45.640 2.669243
45.645 2.946332
45.650 2.940152
45.655 3.081871
45.660 3.233495
45.665 3.145972
45.670 3.091271
45.675 2.88374
45.680 2.431224
45.685 2.407763
45.690 2.824927
45.695 3.312335
45.700 3.758222
45.705 3.208306
45.710 2.107496
45.715 1.733152
45.720 1.391775
45.725 1.747848
45.730 2.027755
45.735 2.321841
45.740 2.723992
45.745 2.987729
45.750 3.040486
45.755 2.524363
45.760 2.671031
45.765 2.576056
45.770 3.349098
45.775 3.662409
45.780 3.595181
45.785 3.518252
45.790 2.906321
45.795 2.068239
45.800 1.522662
45.805 1.467477
45.810 2.090913
45.815 2.798466
45.820 2.962267
45.825 2.989094
45.830 3.114482
45.835 3.102554
45.840 3.166061
45.845 2.6101
45.850 1.906989
45.855 1.849548
45.860 2.219394
45.865 2.469189
45.870 2.505243
45.875 2.971545
45.880 3.027076
45.885 2.852745
45.890 1.986881
45.895 1.596229
45.900 1.913975
45.905 2.506418
45.910 2.68191
45.915 2.20189
45.920 2.103409
45.925 2.430753
45.930 2.222614
45.935 2.305299
45.940 2.223274
45.945 2.591234
45.950 2.907693
45.955 3.039637
45.960 2.446546
45.965 2.397145
45.970 2.378515
45.975 2.430453
45.980 2.657698
45.985 3.172259
45.990 3.074116
45.995 3.040873
46.000 2.706409
46.005 2.308036
46.010 2.341224
46.015 2.371564
46.020 2.62794
46.025 2.473509
46.030 2.477589
46.035 2.676915
46.040 2.217273
46.045 2.18775
46.050 1.894025
46.055 1.878943
46.060 1.897732
46.065 1.747651
46.070 2.075788
46.075 2.323201
46.080 2.222424
46.085 2.332942
46.090 1.822901
46.095 2.096513
46.100 2.271664
46.105 2.507142
46.110 2.78023
46.115 2.257776
46.120 2.407779
46.125 2.81198
46.130 2.934029
46.135 3.550328
46.140 3.32459
46.145 3.306275
46.150 3.471519
46.155 3.063214
46.160 3.21523
46.165 2.818372
46.170 2.934089
46.175 2.763974
46.180 3.060608
46.185 3.118661
46.190 3.207223
46.195 3.107303
46.200 2.941822
46.205 2.804324
46.210 2.480561
46.215 2.267689
46.220 2.221073
46.225 2.298172
46.230 1.947566
46.235 2.131306
46.240 2.312499
46.245 2.642312
46.250 2.66613
46.255 3.018868
46.260 3.249742
46.265 3.104846
46.270 2.827243
46.275 2.92032
46.280 3.103058
46.285 3.098088
46.290 2.869695
46.295 2.492456
46.300 2.458994
46.305 2.292364
46.310 2.38485
46.315 2.471575
46.320 2.752143
46.325 2.569079
46.330 2.539816
46.335 2.144562
46.340 1.646028
46.345 1.562732
46.350 1.957613
46.355 2.86313
46.360 3.046665
46.365 2.648652
46.370 2.384681
46.375 2.249388
46.380 2.579328
46.385 2.375798
46.390 1.987846
46.395 1.391013
46.400 1.606335
46.405 2.20259
46.410 3.156337
46.415 3.576463
46.420 3.094715
46.425 2.821876
46.430 2.246071
46.435 1.957896
46.440 1.688668
46.445 1.426236
46.450 1.843551
46.455 2.061143
46.460 2.140857
46.465 1.964466
46.470 1.56427
46.475 1.481993
46.480 1.934268
46.485 2.434835
46.490 2.62908
46.495 2.912047
46.500 2.240323
46.505 2.451498
46.510 2.293509
46.515 2.204547
46.520 1.957863
46.525 1.591672
46.530 1.347698
46.535 1.320234
46.540 1.763782
46.545 2.08606
46.550 2.31439
46.555 2.094473
46.560 2.43717
46.565 2.611962
46.570 2.894151
46.575 2.724035
46.580 2.119301
46.585 1.698648
46.590 1.862842
46.595 2.537489
46.600 3.138764
46.605 3.44076
46.610 2.768276
46.615 1.834563
46.620 1.47647
46.625 1.444544
46.630 1.775422
46.635 2.040049
46.640 1.989529
46.645 2.291969
46.650 2.5588
46.655 3.175279
46.660 3.060545
46.665 2.825725
46.670 2.322228
46.675 1.903008
46.680 2.137781
46.685 1.774335
46.690 2.087309
46.695 1.895558
46.700 1.774868
46.705 2.170349
46.710 1.855518
46.715 2.712648
46.720 3.202575
46.725 3.679739
46.730 3.832289
46.735 3.244487
46.740 2.480433
46.745 2.255539
46.750 1.7058
46.755 1.797151
46.760 1.625594
46.765 2.08694
46.770 2.164224
46.775 2.144496
46.780 2.0302
46.785 1.73288
46.790 2.524084
46.795 2.809115
46.800 3.470352
46.805 3.467167
46.810 2.851489
46.815 2.422704
46.820 1.734491
46.825 2.209724
46.830 2.587733
46.835 2.801365
46.840 2.517431
46.845 2.000169
46.850 1.710631
46.855 1.954723
46.860 2.11861
46.865 2.313782
46.870 2.577502
46.875 2.761422
46.880 2.702017
46.885 2.759534
46.890 2.333871
46.895 2.347124
46.900 2.029461
46.905 2.095229
46.910 2.73942
46.915 2.684344
46.920 2.733413
46.925 2.627347
46.930 2.867478
46.935 3.292202
46.940 2.804991
46.945 2.494997
46.950 1.853698
46.955 1.703741
46.960 2.168619
46.965 2.791123
46.970 3.690803
46.975 3.983336
46.980 3.013408
46.985 2.304921
46.990 1.464261
46.995 1.475355
47.000 1.764096
47.005 1.971688
47.010 2.341706
47.015 2.181227
47.020 2.007592
47.025 1.659085
47.030 1.903798
47.035 2.158438
47.040 2.216692
47.045 2.020197
47.050 2.273964
47.055 2.432643
47.060 2.591007
47.065 2.679799
47.070 2.287043
47.075 2.129386
47.080 2.124347
47.085 2.209546
47.090 2.681662
47.095 2.986271
47.100 3.019227
47.105 2.729429
47.110 2.381094
47.115 2.41241
47.120 2.292472
47.125 2.178042
47.130 2.002195
47.135 2.638353
47.140 3.13998
47.145 3.249774
47.150 3.678152
47.155 2.851008
47.160 3.217682
47.165 2.531296
47.170 2.525783
47.175 3.148062
47.180 3.063749
47.185 3.409771
47.190 2.829406
47.195 2.239499
47.200 1.718657
47.205 1.518256
47.210 1.789528
47.215 2.062098
47.220 1.864194
47.225 2.051303
47.230 2.64587
47.235 2.697777
47.240 2.738044
47.245 2.030572
47.250 1.485768
47.255 2.127389
47.260 2.505693
47.265 2.730754
47.270 3.047954
47.275 2.600521
47.280 3.041444
47.285 3.083275
47.290 3.314507
47.295 2.98719
47.300 2.882757
47.305 2.775199
47.310 2.877976
47.315 3.193357
47.320 3.826373
47.325 4.161459
47.330 4.215296
47.335 3.021547
47.340 2.754475
47.345 2.454658
47.350 2.749945
47.355 2.424963
47.360 2.163493
47.365 2.023144
47.370 1.834215
47.375 1.98451
47.380 2.801591
47.385 3.276511
47.390 4.17113
47.395 4.213456
47.400 4.216198
47.405 3.703869
47.410 2.716541
47.415 2.464234
47.420 2.640601
47.425 2.916535
47.430 2.744752
47.435 2.192255
47.440 1.669642
47.445 1.426077
47.450 1.746062
47.455 2.018385
47.460 2.241292
47.465 2.031309
47.470 2.292622
47.475 2.366721
47.480 2.699996
47.485 2.74771
47.490 2.293732
47.495 2.415865
47.500 2.866239
47.505 2.758013
47.510 2.982665
47.515 2.4257
47.520 2.110437
47.525 1.838621
47.530 1.818702
47.535 1.660507
47.540 1.739604
47.545 1.7039
47.550 1.715776
47.555 2.184821
47.560 2.325061
47.565 2.54066
47.570 2.195426
47.575 1.784629
47.580 2.212712
47.585 2.492522
47.590 2.776531
47.595 2.754594
47.600 2.492361
47.605 2.501887
47.610 2.69424
47.615 2.677364
47.620 2.749719
47.625 2.70785
47.630 2.65578
47.635 2.282534
47.640 1.982388
47.645 2.171564
47.650 1.957177
47.655 2.080505
47.660 1.593681
47.665 2.058528
47.670 1.84983
47.675 2.467203
47.680 2.541557
47.685 2.426751
47.690 2.613569
47.695 2.421945
47.700 2.396879
47.705 2.158948
47.710 1.712883
47.715 1.688795
47.720 1.877109
47.725 2.164247
47.730 1.709447
47.735 2.010411
47.740 1.759882
47.745 1.640789
47.750 1.381346
47.755 1.413568
47.760 2.002218
47.765 2.127847
47.770 2.152418
47.775 2.168643
47.780 2.365328
47.785 2.708938
47.790 2.717689
47.795 2.403312
47.800 1.894469
47.805 1.776334
47.810 2.043897
47.815 2.601888
47.820 2.8318
47.825 2.638687
47.830 2.600254
47.835 2.809507
47.840 2.542596
47.845 2.715039
47.850 1.960352
47.855 2.320195
47.860 2.155171
47.865 2.057296
47.870 2.21993
47.875 1.691221
47.880 1.746988
47.885 1.264243
47.890 1.239317
47.895 1.500034
47.900 1.830778
47.905 1.999369
47.910 2.265547
47.915 1.972932
47.920 1.783928
47.925 1.819926
47.930 1.58342
47.935 1.571702
47.940 1.652882
47.945 1.905984
47.950 2.021344
47.955 2.160021
47.960 1.956146
47.965 2.096127
47.970 2.073833
47.975 2.001723
47.980 1.891395
47.985 1.936268
47.990 1.648617
47.995 1.843263
48.000 2.049035
48.005 2.135988
48.010 2.026399
48.015 1.726784
48.020 1.446107
48.025 1.617225
48.030 1.90744
48.035 2.482072
48.040 3.394852
48.045 3.575642
48.050 3.312591
48.055 2.02418
48.060 1.588869
48.065 1.445379
48.070 1.879256
48.075 2.011189
48.080 2.03101
48.085 1.809351
48.090 2.048512
48.095 2.085896
48.100 2.372983
48.105 2.354138
48.110 1.69002
48.115 1.424654
48.120 0.985765
48.125 1.487308
48.130 1.762323
48.135 1.519926
48.140 1.582304
48.145 1.568261
48.150 2.219588
48.155 2.718629
48.160 2.382088
48.165 2.073957
48.170 1.831003
48.175 2.425399
48.180 2.877104
48.185 2.876873
48.190 2.447282
48.195 2.295547
48.200 2.292809
48.205 2.742446
48.210 2.626989
48.215 2.473126
48.220 2.054191
48.225 1.583414
48.230 0.954191
48.235 1.019827
48.240 1.128558
48.245 1.270563
48.250 1.352431
48.255 1.375694
48.260 1.437795
48.265 1.501223
48.270 1.746544
48.275 1.633107
48.280 1.545325
48.285 1.555533
48.290 1.864442
48.295 2.024079
48.300 2.205476
48.305 2.073853
48.310 2.443812
48.315 3.090602
48.320 3.037589
48.325 2.793252
48.330 2.270623
48.335 1.753468
48.340 2.145932
48.345 1.756976
48.350 1.595505
48.355 1.507824
48.360 1.887112
48.365 1.978437
48.370 2.309784
48.375 2.003288
48.380 1.811101
48.385 1.592402
48.390 1.503332
48.395 1.813161
48.400 2.071793
48.405 2.204736
48.410 2.48574
48.415 2.255114
48.420 2.215059
48.425 1.70733
48.430 1.437342
48.435 1.699066
48.440 1.796341
48.445 2.054279
48.450 2.028993
48.455 1.340558
48.460 1.314323
48.465 1.337867
48.470 1.505069
48.475 1.902695
48.480 1.866457
48.485 1.969601
48.490 1.897398
48.495 1.931608
48.500 2.082892
48.505 2.206717
48.510 2.008767
48.515 2.177347
48.520 2.229762
48.525 2.535582
48.530 2.887112
48.535 2.62595
48.540 2.49328
48.545 1.999233
48.550 1.686483
48.555 1.535396
48.560 1.678113
48.565 1.786087
48.570 2.179451
48.575 2.595044
48.580 2.503611
48.585 2.406108
48.590 1.939214
48.595 2.111836
48.600 2.72276
48.605 2.74017
48.610 2.263043
48.615 1.905482
48.620 1.677577
48.625 1.974277
48.630 2.193179
48.635 2.27949
48.640 2.645704
48.645 2.629337
48.650 2.213643
48.655 2.287878
48.660 2.12025
48.665 2.415266
48.670 2.063533
48.675 2.054117
48.680 1.755029
48.685 2.159538
48.690 2.419361
48.695 2.580256
48.700 2.17735
48.705 2.201362
48.710 1.672604
48.715 1.691181
48.720 1.608201
48.725 1.645107
48.730 1.738768
48.735 1.80849
48.740 1.969817
48.745 2.146719
48.750 2.293263
48.755 2.059707
48.760 2.153337
48.765 1.826015
48.770 2.117241
48.775 2.320667
48.780 2.906589
48.785 2.864706
48.790 3.111687
48.795 2.511473
48.800 1.941076
48.805 2.001369
48.810 1.983403
48.815 2.789612
48.820 2.963656
48.825 2.776641
48.830 2.371205
48.835 1.437197
48.840 1.254633
48.845 1.283605
48.850 1.356861
48.855 1.653516
48.860 1.538402
48.865 1.578649
48.870 1.560243
48.875 1.8051
48.880 1.748034
48.885 1.605252
48.890 1.551063
48.895 1.566798
48.900 1.930648
48.905 1.759365
48.910 1.49043
48.915 1.038565
48.920 0.797789
48.925 0.841827
48.930 1.230712
48.935 1.743492
48.940 2.243562
48.945 2.224693
48.950 1.912351
48.955 1.93715
48.960 1.578784
48.965 1.869692
48.970 1.88248
48.975 1.690141
48.980 1.534253
48.985 1.16231
48.990 1.273855
48.995 1.607089
49.000 2.218617
49.005 2.388443
49.010 2.440443
49.015 2.354382
49.020 2.201075
49.025 2.616942
49.030 2.703252
49.035 2.830043
49.040 2.756602
49.045 2.482515
49.050 1.86148
49.055 1.719987
49.060 1.352209
49.065 1.376772
49.070 1.400943
49.075 1.335529
49.080 1.440714
49.085 1.387367
49.090 1.439103
49.095 1.167616
49.100 1.14124
49.105 1.373683
49.110 1.778208
49.115 1.817265
49.120 1.857873
49.125 1.728221
49.130 1.980561
49.135 2.309407
49.140 2.603765
49.145 2.965678
49.150 2.77362
49.155 2.610175
49.160 2.755624
49.165 2.453374
49.170 2.577526
49.175 2.133291
49.180 1.995824
49.185 1.760909
49.190 1.738041
49.195 2.365273
49.200 2.614836
49.205 2.482491
49.210 2.392478
49.215 2.007399
49.220 1.882841
49.225 1.509567
49.230 1.271415
49.235 1.460506
49.240 1.520348
49.245 1.870659
49.250 2.390118
49.255 2.389382
49.260 2.835743
49.265 2.763742
49.270 2.641814
49.275 2.116376
49.280 1.326119
49.285 1.550157
49.290 1.615637
49.295 1.730208
49.300 1.622649
49.305 1.785392
49.310 1.756206
49.315 1.611355
49.320 1.299909
49.325 0.951664
49.330 1.018125
49.335 1.416583
49.340 1.532215
49.345 1.940364
49.350 1.894083
49.355 2.115398
49.360 2.093214
49.365 2.020589
49.370 2.062939
49.375 2.029744
49.380 2.425807
49.385 1.951307
49.390 1.90251
49.395 1.36098
49.400 1.564256
49.405 1.825869
49.410 1.711973
49.415 1.88959
49.420 1.736901
49.425 1.759205
49.430 1.935242
49.435 2.119665
49.440 2.682008
49.445 2.962909
49.450 3.133017
49.455 2.747316
49.460 2.346754
49.465 2.300104
49.470 2.270268
49.475 2.390909
49.480 2.065337
49.485 1.891904
49.490 1.757398
49.495 1.477591
49.500 1.186016
49.505 0.890469
49.510 0.791838
49.515 0.850728
49.520 1.185529
49.525 1.201582
49.530 1.312768
49.535 1.481853
49.540 1.494532
49.545 1.682379
49.550 1.30195
49.555 1.650002
49.560 1.784274
49.565 1.998178
49.570 1.745066
49.575 1.270488
49.580 1.460364
49.585 1.939648
49.590 2.346634
49.595 2.472687
49.600 2.096116
49.605 2.28186
49.610 2.292981
49.615 2.207231
49.620 2.134005
49.625 2.164663
49.630 2.138436
49.635 1.867459
49.640 2.068349
49.645 1.957236
49.650 2.078215
49.655 1.857062
49.660 2.021037
49.665 1.816211
49.670 1.989302
49.675 1.649691
49.680 1.799037
49.685 2.090086
49.690 2.564287
49.695 2.771209
49.700 2.439748
49.705 1.976054
49.710 1.708598
49.715 1.506861
49.720 1.967881
49.725 1.95546
49.730 1.740542
49.735 1.461291
49.740 1.4477
49.745 1.75305
49.750 2.139415
49.755 2.198093
49.760 1.964223
49.765 1.710598
49.770 1.442737
49.775 1.318702
49.780 1.142566
49.785 1.057621
49.790 1.045772
49.795 1.555027
49.800 2.067001
49.805 1.982506
49.810 1.881938
49.815 1.880139
49.820 2.454895
49.825 2.741518
49.830 2.556067
49.835 2.072148
49.840 1.572039
49.845 1.490356
49.850 1.330933
49.855 1.484965
49.860 1.931653
49.865 2.412482
49.870 2.765148
49.875 2.482145
49.880 1.912178
49.885 1.871499
49.890 1.752435
49.895 1.995866
49.900 1.731859
49.905 1.674608
49.910 1.476527
49.915 1.2821
49.920 1.339548
49.925 1.754402
49.930 2.139713
49.935 2.500558
49.940 2.274122
49.945 1.870531
49.950 1.784447
49.955 1.657354
49.960 1.635898
49.965 1.521694
49.970 1.357521
49.975 1.324179
49.980 1.343445
49.985 1.38401
49.990 1.762551
49.995 2.078233
50.000 2.315999
50.005 1.810471
50.010 1.473113
50.015 0.961665
50.020 0.909917
50.025 1.282117
50.030 1.698718
50.035 1.987829
50.040 2.13638
50.045 2.177639
50.050 2.086568
50.055 1.934661
50.060 2.073686
50.065 1.694483
50.070 2.167452
50.075 2.153143
50.080 2.292175
50.085 2.256851
50.090 1.853907
50.095 2.05406
50.100 2.007356
50.105 2.026079
50.110 1.836125
50.115 1.531265
50.120 1.517749
50.125 1.571132
50.130 1.876663
50.135 2.197138
50.140 1.795955
50.145 1.845287
50.150 1.692034
50.155 2.102535
50.160 2.819139
50.165 2.376054
50.170 2.257494
50.175 1.758768
50.180 1.498989
50.185 1.550771
50.190 1.73064
50.195 2.015314
50.200 2.210837
50.205 2.310016
50.210 2.050118
50.215 2.075425
50.220 2.033246
50.225 2.05645
50.230 2.022165
50.235 2.207024
50.240 1.771302
50.245 1.60177
50.250 1.462016
50.255 2.666466
50.260 3.517795
50.265 3.8005
50.270 3.335628
50.275 2.738744
50.280 2.621799
50.285 2.491786
50.290 2.296498
50.295 2.344878
50.300 2.886551
50.305 3.193537
50.310 3.507123
50.315 3.018889
50.320 2.899689
50.325 2.555809
50.330 2.531282
50.335 2.59804
50.340 2.659235
50.345 2.866194
50.350 3.230108
50.355 3.772069
50.360 3.86189
50.365 3.519676
50.370 2.662107
50.375 2.433534
50.380 2.090847
50.385 1.998121
50.390 1.649996
50.395 1.883778
50.400 1.758841
50.405 1.627745
50.410 1.500916
50.415 1.970729
50.420 3.166851
50.425 3.562729
50.430 3.288464
50.435 2.35062
50.440 2.13572
50.445 2.090253
50.450 2.25975
50.455 2.104428
50.460 1.839117
50.465 2.301122
50.470 2.364014
50.475 2.875009
50.480 2.544909
50.485 1.98249
50.490 1.725214
50.495 1.772198
50.500 2.297924
50.505 2.339923
50.510 1.781388
50.515 1.956886
50.520 1.884306
50.525 2.107102
50.530 2.061338
50.535 1.695748
50.540 1.952832
50.545 1.755463
50.550 1.664871
50.555 1.98783
50.560 2.016857
50.565 1.94264
50.570 1.852165
50.575 1.579978
50.580 1.44363
50.585 1.634449
50.590 1.69281
50.595 1.518296
50.600 1.791199
50.605 1.307999
50.610 1.999999
50.615 2.238366
50.620 2.680008
50.625 2.660577
50.630 2.15993
50.635 2.102974
50.640 2.039195
50.645 2.434966
50.650 2.400783
50.655 2.49088
50.660 1.716273
50.665 1.669209
50.670 2.108194
50.675 2.521468
50.680 2.769589
50.685 2.199463
50.690 2.056715
50.695 2.428505
50.700 2.676418
50.705 2.595611
50.710 2.152491
50.715 2.059098
50.720 1.989018
50.725 2.015409
50.730 2.094406
50.735 2.878331
50.740 3.317247
50.745 3.308771
50.750 2.846292
50.755 2.171152
50.760 1.951337
50.765 1.861163
50.770 2.20148
50.775 2.407489
50.780 2.661011
50.785 2.711493
50.790 2.723111
50.795 2.176274
50.800 1.599661
50.805 1.068144
50.810 1.133918
50.815 1.271369
50.820 1.647313
50.825 1.415668
50.830 2.123103
50.835 2.627959
50.840 2.417758
50.845 2.482496
50.850 2.138
50.855 2.494478
50.860 2.559484
50.865 2.428089
50.870 2.141942
50.875 2.501193
50.880 2.385525
50.885 2.685454
50.890 2.108474
50.895 1.794295
50.900 1.538661
50.905 2.025803
50.910 2.27767
50.915 2.346302
50.920 2.495381
50.925 2.553181
50.930 3.04217
50.935 3.308882
50.940 3.007672
50.945 2.792546
50.950 2.345762
50.955 2.185236
50.960 2.590993
50.965 2.303131
50.970 2.326325
50.975 2.081299
50.980 2.201427
50.985 2.512411
50.990 2.645693
50.995 3.345046
51.000 3.723747
51.005 3.808769
51.010 2.893191
51.015 1.768947
51.020 1.439168
51.025 1.827003
51.030 2.526556
51.035 2.586844
51.040 2.404789
51.045 1.645913
51.050 1.822511
51.055 1.69419
51.060 1.979309
51.065 2.033877
51.070 2.288493
51.075 2.123025
51.080 1.784138
51.085 1.570474
51.090 2.010506
51.095 2.345436
51.100 2.654508
51.105 2.404924
51.110 1.977379
51.115 1.526981
51.120 1.260059
51.125 1.328038
51.130 1.608325
51.135 1.82432
51.140 2.03217
51.145 2.361369
51.150 2.385273
51.155 1.822857
51.160 1.787784
51.165 1.966328
51.170 2.013214
51.175 1.882304
51.180 1.421257
51.185 1.696948
51.190 1.960472
51.195 2.2408
51.200 2.18831
51.205 2.057423
51.210 2.285256
51.215 2.826869
51.220 2.799297
51.225 2.88491
51.230 2.615159
51.235 3.018981
51.240 2.901585
51.245 2.459695
51.250 1.835762
51.255 1.546925
51.260 2.03862
51.265 2.32434
51.270 2.469818
51.275 2.069177
51.280 1.838482
51.285 1.739671
51.290 2.004859
51.295 1.752578
51.300 1.497915
51.305 1.174804
51.310 1.45258
51.315 1.77358
51.320 2.367721
51.325 2.611827
51.330 2.641593
51.335 2.527942
51.340 2.790976
51.345 2.933391
51.350 3.208097
51.355 2.652862
51.360 2.253757
51.365 2.198642
51.370 2.716534
51.375 2.548805
51.380 2.475781
51.385 2.368011
51.390 2.363717
51.395 2.480697
51.400 2.081625
51.405 1.826635
51.410 1.400607
51.415 1.14537
51.420 1.142533
51.425 1.177431
51.430 1.527301
51.435 1.867466
51.440 1.787931
51.445 1.818768
51.450 2.037184
51.455 2.331007
51.460 2.410786
51.465 1.759006
51.470 1.338007
51.475 1.448955
51.480 2.026489
51.485 2.209165
51.490 2.142711
51.495 1.890175
51.500 1.559471
51.505 1.836293
51.510 1.770453
51.515 2.085602
51.520 2.346002
51.525 2.460195
51.530 2.527136
51.535 3.08787
51.540 3.057047
51.545 2.898276
51.550 2.101587
51.555 1.572742
51.560 1.298565
51.565 1.149615
51.570 1.535043
51.575 1.791314
51.580 2.362487
51.585 2.391645
51.590 2.40826
51.595 2.052346
51.600 2.200864
51.605 2.117385
51.610 2.438775
51.615 2.705997
51.620 2.367117
51.625 2.789141
51.630 2.549
51.635 2.878424
51.640 2.525608
51.645 2.318849
51.650 2.151598
51.655 2.299564
51.660 2.553954
51.665 2.834194
51.670 2.449538
51.675 2.082355
51.680 1.265148
51.685 1.336111
51.690 1.541702
51.695 2.023501
51.700 1.968514
51.705 2.127416
51.710 2.152167
51.715 2.29384
51.720 2.344989
51.725 2.387275
51.730 2.636797
51.735 2.53741
51.740 2.966755
51.745 2.741148
51.750 2.808893
51.755 2.210036
51.760 1.764121
51.765 1.511467
51.770 1.025437
51.775 1.105688
51.780 1.383509
51.785 2.083729
51.790 2.383973
51.795 2.292336
51.800 2.028502
51.805 1.923549
51.810 2.260548
51.815 2.371525
51.820 2.178501
51.825 2.414293
51.830 2.231707
51.835 2.600188
51.840 2.306922
51.845 2.025555
51.850 1.860644
51.855 1.935748
51.860 2.003609
51.865 2.032443
51.870 2.076927
51.875 2.22739
51.880 2.126587
51.885 1.788266
51.890 1.857059
51.895 1.636727
51.900 2.114284
51.905 2.194908
51.910 2.51183
51.915 2.53985
51.920 2.415191
51.925 2.231319
51.930 2.162499
51.935 1.86727
51.940 2.018305
51.945 2.139154
51.950 2.232279
51.955 2.226926
51.960 1.872051
51.965 1.884074
51.970 1.628308
51.975 1.771993
51.980 1.865148
51.985 2.143706
51.990 2.464557
51.995 2.361358
52.000 1.692731
52.005 1.551628
52.010 1.645057
52.015 1.871076
52.020 1.810731
52.025 1.674862
52.030 1.507796
52.035 1.405873
52.040 1.436391
52.045 1.887832
52.050 2.226043
52.055 2.280244
52.060 1.973306
52.065 2.138627
52.070 2.154663
52.075 1.733774
52.080 1.663545
52.085 1.850572
52.090 2.346163
52.095 2.293395
52.100 2.061464
52.105 1.641755
52.110 2.073502
52.115 2.449897
52.120 2.701844
52.125 2.796645
52.130 2.157766
52.135 2.01053
52.140 1.521916
52.145 1.715721
52.150 1.865983
52.155 1.831742
52.160 1.944542
52.165 1.618368
52.170 2.012866
52.175 2.028195
52.180 2.3174
52.185 1.756486
52.190 2.143843
52.195 2.269076
52.200 2.754939
52.205 2.777873
52.210 1.977285
52.215 1.322523
52.220 1.016934
52.225 1.131348
52.230 1.579918
52.235 2.009617
52.240 2.366301
52.245 2.593791
52.250 2.360808
52.255 2.022856
52.260 1.932992
52.265 2.119488
52.270 2.315944
52.275 2.161102
52.280 2.127148
52.285 2.259311
52.290 2.509931
52.295 2.207459
52.300 2.229388
52.305 1.701467
52.310 2.01246
52.315 2.199279
52.320 2.117723
52.325 2.118897
52.330 2.201063
52.335 2.336425
52.340 2.398456
52.345 2.477494
52.350 2.76526
52.355 2.818052
52.360 2.557399
52.365 2.142778
52.370 2.099088
52.375 1.813636
52.380 1.564083
52.385 1.508608
52.390 1.834334
52.395 1.964714
52.400 1.960992
52.405 2.015988
52.410 2.264763
52.415 2.782808
52.420 2.944237
52.425 2.334793
52.430 1.580843
52.435 1.448784
52.440 1.662365
52.445 2.605051
52.450 2.809068
52.455 2.7842
52.460 2.773236
52.465 2.276809
52.470 2.416473
52.475 2.069026
52.480 2.512457
52.485 2.497012
52.490 2.032126
52.495 2.121412
52.500 2.191048
