!@!!GADDS PLOTSO FILE: Chi integration type
!@!!Title/SampleName: map-181
!@!!Comment: ?
!@!!User: Bruker Instrument Administrator
!@!!Site: University of Illinois Chicago
!@!!Frame: map-181_01_000.gfrm
!@!!Wavelengths    1.54184   1.54056   1.54439
!@!!Frame angles: 2Theta: 63.000 Omega: 50.000 Phi: 0.000 Chi: 90.000
!@!!Integration range: 2Theta: 53.000 to 73.000  Gamma: -105.000 to -75.000
!@!!Integration method: bin normalized
!@!N
!@!SS
!@!M
!@!L 0.0 0.0 0.0 0.0
!@!XDegrees
!@!YCounts
53.000 6.558251
53.005 6.943707
53.010 7.011422
53.015 7.320957
53.020 7.037492
53.025 6.644352
53.030 6.73596
53.035 6.643672
53.040 6.726219
53.045 7.284325
53.050 7.114375
53.055 7.378676
53.060 7.297036
53.065 7.385817
53.070 7.531559
53.075 7.306348
53.080 6.882458
53.085 7.098974
53.090 7.554872
53.095 7.908301
53.100 7.722126
53.105 7.705014
53.110 7.976783
53.115 8.579246
53.120 8.460588
53.125 8.619694
53.130 8.801803
53.135 8.951445
53.140 9.11503
53.145 8.86284
53.150 8.255564
53.155 7.871085
53.160 7.908602
53.165 8.017444
53.170 8.200105
53.175 7.949353
53.180 7.697862
53.185 7.986714
53.190 8.000893
53.195 7.76117
53.200 7.930253
53.205 8.089105
53.210 8.519634
53.215 8.456152
53.220 8.315312
53.225 8.47032
53.230 8.498122
53.235 8.397397
53.240 8.234883
53.245 8.241518
53.250 8.317125
53.255 8.156181
53.260 8.426655
53.265 8.015179
53.270 7.584141
53.275 7.205873
53.280 7.22253
53.285 7.178036
53.290 7.230185
53.295 6.62191
53.300 6.889084
53.305 7.393814
53.310 7.601716
53.315 7.829538
53.320 8.038677
53.325 7.786562
53.330 7.858857
53.335 8.063975
53.340 8.046659
53.345 7.971141
53.350 7.364217
53.355 7.073485
53.360 7.317575
53.365 7.219347
53.370 6.829639
53.375 6.871225
53.380 6.719883
53.385 6.709768
53.390 7.041584
53.395 6.839372
53.400 7.223723
53.405 7.375263
53.410 7.223866
53.415 7.730422
53.420 7.557329
53.425 7.554858
53.430 8.240914
53.435 8.565091
53.440 8.436756
53.445 8.329043
53.450 8.378754
53.455 8.723561
53.460 8.348813
53.465 8.080411
53.470 7.662983
53.475 7.967732
53.480 7.859999
53.485 7.516841
53.490 7.263409
53.495 7.174337
53.500 6.994767
53.505 6.718588
53.510 6.651251
53.515 6.994491
53.520 7.536684
53.525 8.065904
53.530 8.17733
53.535 8.408591
53.540 8.824196
53.545 8.817079
53.550 8.759503
53.555 8.604568
53.560 8.590842
53.565 8.7756
53.570 8.797294
53.575 8.474967
53.580 8.65846
53.585 8.670551
53.590 8.853409
53.595 9.193054
53.600 8.811185
53.605 8.609649
53.610 8.367283
53.615 7.896163
53.620 7.50235
53.625 7.403606
53.630 7.13435
53.635 7.495574
53.640 7.933821
53.645 8.394773
53.650 8.565738
53.655 8.806294
53.660 8.934588
53.665 9.159907
53.670 9.021137
53.675 8.787048
53.680 8.629253
53.685 8.890315
53.690 9.204323
53.695 9.110242
53.700 9.102665
53.705 9.102767
53.710 9.168673
53.715 9.419468
53.720 9.441111
53.725 9.090745
53.730 8.970241
53.735 8.649624
53.740 8.539379
53.745 8.635386
53.750 8.440237
53.755 8.614083
53.760 8.333224
53.765 8.371031
53.770 8.807892
53.775 9.3434
53.780 9.358045
53.785 9.118228
53.790 9.306182
53.795 9.298295
53.800 9.297138
53.805 8.833273
53.810 8.21988
53.815 8.382202
53.820 8.385887
53.825 8.110272
53.830 8.317536
53.835 8.967574
53.840 9.379652
53.845 9.589684
53.850 9.417583
53.855 9.0352
53.860 8.925713
53.865 8.601098
53.870 8.269122
53.875 7.980524
53.880 7.80695
53.885 7.855873
53.890 8.184234
53.895 7.811475
53.900 7.171841
53.905 7.154575
53.910 7.166442
53.915 7.288695
53.920 7.375372
53.925 7.509942
53.930 8.061506
53.935 7.877708
53.940 7.913555
53.945 7.76336
53.950 7.683799
53.955 7.49319
53.960 7.3179
53.965 7.511538
53.970 7.714276
53.975 7.717115
53.980 7.776569
53.985 7.52494
53.990 7.472616
53.995 7.513656
54.000 7.502239
54.005 7.577281
54.010 7.504519
54.015 7.813812
54.020 7.819343
54.025 7.746194
54.030 7.544808
54.035 7.823334
54.040 7.865062
54.045 7.952806
54.050 8.080592
54.055 8.853201
54.060 9.13715
54.065 9.401495
54.070 9.066621
54.075 8.768085
54.080 8.734851
54.085 8.833286
54.090 8.196539
54.095 7.947251
54.100 7.41434
54.105 7.539914
54.110 7.992362
54.115 7.929192
54.120 7.364282
54.125 7.273771
54.130 7.764253
54.135 8.28019
54.140 8.160354
54.145 8.188143
54.150 8.505521
54.155 9.003837
54.160 9.408261
54.165 9.411043
54.170 9.549868
54.175 9.327096
54.180 8.973755
54.185 8.525678
54.190 8.529108
54.195 8.745585
54.200 9.127218
54.205 9.075377
54.210 9.185447
54.215 9.517672
54.220 9.643849
54.225 9.354186
54.230 8.89864
54.235 8.814422
54.240 9.095177
54.245 8.897617
54.250 8.6006
54.255 8.884335
54.260 9.308441
54.265 8.91243
54.270 8.478923
54.275 8.49991
54.280 8.858368
54.285 8.967276
54.290 8.972732
54.295 8.532333
54.300 8.476631
54.305 8.516333
54.310 8.434209
54.315 8.541377
54.320 8.618441
54.325 8.385648
54.330 8.574819
54.335 8.893336
54.340 8.912757
54.345 8.678914
54.350 8.084659
54.355 7.798082
54.360 8.229599
54.365 8.706453
54.370 8.533175
54.375 8.461171
54.380 8.769629
54.385 9.308468
54.390 9.771758
54.395 9.292711
54.400 8.836799
54.405 8.319947
54.410 8.50797
54.415 8.731863
54.420 8.620306
54.425 8.391083
54.430 8.775499
54.435 9.141142
54.440 9.529474
54.445 9.521371
54.450 9.570662
54.455 9.663451
54.460 9.573557
54.465 9.355902
54.470 9.193767
54.475 8.569392
54.480 7.778982
54.485 7.275354
54.490 7.108951
54.495 6.772701
54.500 6.949747
54.505 7.742579
54.510 8.42826
54.515 8.683331
54.520 8.767997
54.525 8.862117
54.530 9.021831
54.535 8.598783
54.540 7.901105
54.545 7.987919
54.550 7.714687
54.555 7.57035
54.560 7.718388
54.565 7.968109
54.570 8.017559
54.575 7.960558
54.580 8.276458
54.585 9.076112
54.590 9.214911
54.595 9.200315
54.600 8.687284
54.605 8.575274
54.610 8.410352
54.615 8.086965
54.620 7.823412
54.625 7.597418
54.630 7.794471
54.635 8.31541
54.640 8.564437
54.645 8.699116
54.650 8.87404
54.655 8.830346
54.660 8.887326
54.665 8.760404
54.670 8.81536
54.675 8.954849
54.680 9.031664
54.685 9.490496
54.690 9.883982
54.695 10.130687
54.700 9.736993
54.705 9.586396
54.710 9.235408
54.715 8.552711
54.720 7.921759
54.725 7.412426
54.730 7.488213
54.735 7.581264
54.740 7.692491
54.745 7.857099
54.750 7.912218
54.755 8.207532
54.760 8.281495
54.765 8.764024
54.770 9.155654
54.775 9.08038
54.780 9.327811
54.785 9.377715
54.790 9.113866
54.795 9.142895
54.800 8.636871
54.805 8.425259
54.810 8.670033
54.815 8.377353
54.820 8.681508
54.825 9.327887
54.830 9.385259
54.835 9.403547
54.840 9.766412
54.845 9.971381
54.850 10.137919
54.855 9.771975
54.860 9.3531
54.865 9.250141
54.870 9.030341
54.875 8.436032
54.880 8.259726
54.885 8.069324
54.890 8.007625
54.895 7.895045
54.900 7.989516
54.905 8.045549
54.910 7.997574
54.915 8.131439
54.920 8.338806
54.925 8.755546
54.930 8.767632
54.935 8.743834
54.940 9.299759
54.945 10.015791
54.950 10.116082
54.955 10.023718
54.960 10.275823
54.965 10.351575
54.970 10.081362
54.975 9.366676
54.980 9.200319
54.985 9.02914
54.990 9.062277
54.995 8.910666
55.000 8.784857
55.005 8.605558
55.010 8.727446
55.015 8.528402
55.020 8.719574
55.025 8.341786
55.030 8.03561
55.035 8.433585
55.040 8.931573
55.045 8.965356
55.050 8.978676
55.055 8.810463
55.060 8.922076
55.065 9.253095
55.070 9.176996
55.075 8.977796
55.080 9.059788
55.085 9.169951
55.090 9.354381
55.095 9.214972
55.100 8.88541
55.105 9.029404
55.110 9.276704
55.115 9.241935
55.120 9.023923
55.125 9.177309
55.130 9.965825
55.135 9.945758
55.140 9.516305
55.145 9.217831
55.150 9.161325
55.155 8.989176
55.160 8.599538
55.165 8.176115
55.170 8.557439
55.175 8.752276
55.180 8.851477
55.185 9.182662
55.190 9.221994
55.195 8.761309
55.200 8.489125
55.205 8.299153
55.210 8.483144
55.215 8.722812
55.220 8.043398
55.225 8.14693
55.230 8.705652
55.235 8.778803
55.240 8.396463
55.245 8.18784
55.250 8.415949
55.255 8.495368
55.260 8.25375
55.265 7.892819
55.270 8.195929
55.275 8.641203
55.280 8.558142
55.285 8.507976
55.290 8.923056
55.295 9.418701
55.300 9.446362
55.305 8.737361
55.310 8.450915
55.315 8.116384
55.320 8.176752
55.325 8.131111
55.330 8.249887
55.335 8.146088
55.340 8.571992
55.345 8.544456
55.350 8.99122
55.355 9.19913
55.360 8.975833
55.365 8.955332
55.370 8.656107
55.375 8.194182
55.380 7.951945
55.385 7.394347
55.390 7.1315
55.395 7.37291
55.400 7.365249
55.405 7.662066
55.410 8.122766
55.415 8.922009
55.420 9.113523
55.425 9.126116
55.430 9.130025
55.435 9.242964
55.440 9.634174
55.445 9.343224
55.450 8.871181
55.455 8.908068
55.460 9.011358
55.465 8.488345
55.470 8.230184
55.475 8.133601
55.480 8.263143
55.485 8.152569
55.490 8.012367
55.495 7.980762
55.500 8.230926
55.505 8.229088
55.510 8.450671
55.515 8.280879
55.520 8.239328
55.525 8.148603
55.530 8.462259
55.535 8.614258
55.540 8.414095
55.545 8.101901
55.550 8.06419
55.555 8.294905
55.560 8.166717
55.565 7.746499
55.570 7.67404
55.575 7.71802
55.580 7.971855
55.585 8.0098
55.590 8.315166
55.595 8.266251
55.600 7.755079
55.605 7.44872
55.610 7.241291
55.615 7.10871
55.620 7.275326
55.625 7.34632
55.630 7.635041
55.635 8.169954
55.640 8.398151
55.645 8.446872
55.650 8.705112
55.655 8.569485
55.660 8.176621
55.665 8.050616
55.670 7.824107
55.675 8.023939
55.680 8.342601
55.685 8.424683
55.690 8.503209
55.695 8.789936
55.700 8.945549
55.705 9.191281
55.710 8.856197
55.715 9.032303
55.720 9.040523
55.725 9.089033
55.730 8.897047
55.735 8.799208
55.740 8.711363
55.745 8.520006
55.750 8.141437
55.755 7.83099
55.760 7.570062
55.765 7.93997
55.770 8.101385
55.775 8.397329
55.780 8.943368
55.785 9.01931
55.790 9.262324
55.795 9.501088
55.800 8.951661
55.805 8.544255
55.810 8.153036
55.815 8.099665
55.820 8.572939
55.825 8.76447
55.830 9.17957
55.835 9.70384
55.840 9.926217
55.845 10.272737
55.850 10.019178
55.855 9.108495
55.860 8.750465
55.865 8.465197
55.870 8.462952
55.875 8.781734
55.880 8.169929
55.885 8.209215
55.890 8.623168
55.895 8.66803
55.900 8.35938
55.905 8.24634
55.910 8.264388
55.915 8.425677
55.920 8.62571
55.925 8.489088
55.930 8.604783
55.935 8.755294
55.940 8.59773
55.945 8.957047
55.950 9.266654
55.955 9.082214
55.960 8.89962
55.965 8.767848
55.970 8.590816
55.975 8.857938
55.980 8.688539
55.985 8.474302
55.990 8.396956
55.995 8.542167
56.000 8.301902
56.005 8.299021
56.010 7.637625
56.015 7.363054
56.020 7.237854
56.025 7.295856
56.030 7.414026
56.035 7.948252
56.040 8.236241
56.045 8.563184
56.050 8.410933
56.055 8.270053
56.060 8.105431
56.065 7.856317
56.070 7.569421
56.075 7.460112
56.080 7.690877
56.085 7.876318
56.090 7.915559
56.095 7.903756
56.100 8.042988
56.105 7.918828
56.110 7.494642
56.115 7.640721
56.120 7.818825
56.125 7.846728
56.130 7.864161
56.135 7.805182
56.140 8.087662
56.145 8.376067
56.150 7.999546
56.155 8.390346
56.160 8.5996
56.165 8.828591
56.170 8.964457
56.175 9.171885
56.180 9.283693
56.185 9.350386
56.190 9.127475
56.195 9.320262
56.200 9.172243
56.205 8.977306
56.210 8.839399
56.215 8.721314
56.220 8.545345
56.225 8.489445
56.230 8.641234
56.235 8.9953
56.240 9.347628
56.245 9.613348
56.250 9.673022
56.255 9.681957
56.260 9.749207
56.265 9.330428
56.270 9.282626
56.275 9.116465
56.280 8.796003
56.285 8.931289
56.290 8.921684
56.295 8.628203
56.300 8.472722
56.305 8.375186
56.310 8.346936
56.315 8.89101
56.320 9.189211
56.325 9.136633
56.330 9.225941
56.335 9.392174
56.340 9.287378
56.345 9.228734
56.350 9.158501
56.355 9.081159
56.360 9.195235
56.365 9.510558
56.370 9.565712
56.375 9.689729
56.380 9.875691
56.385 9.695856
56.390 9.485095
56.395 9.625994
56.400 9.667666
56.405 9.716161
56.410 9.671953
56.415 9.513972
56.420 9.963866
56.425 10.169957
56.430 10.204477
56.435 10.125595
56.440 9.970629
56.445 10.01168
56.450 10.15007
56.455 10.518468
56.460 10.808121
56.465 10.782916
56.470 10.722979
56.475 10.347333
56.480 10.211047
56.485 9.837115
56.490 9.68934
56.495 9.598505
56.500 9.547688
56.505 9.744199
56.510 10.328971
56.515 10.604679
56.520 10.45253
56.525 9.719083
56.530 9.682978
56.535 10.136089
56.540 10.33996
56.545 10.219955
56.550 10.16652
56.555 10.246641
56.560 10.420947
56.565 10.24363
56.570 9.822446
56.575 9.437774
56.580 9.378033
56.585 9.422438
56.590 9.714908
56.595 9.80138
56.600 9.68415
56.605 9.879307
56.610 10.201919
56.615 10.294871
56.620 10.83668
56.625 10.81013
56.630 10.702581
56.635 10.416065
56.640 10.31039
56.645 10.266323
56.650 9.787264
56.655 9.483698
56.660 9.543521
56.665 9.497108
56.670 9.779127
56.675 10.057594
56.680 10.035421
56.685 10.433806
56.690 10.395099
56.695 10.206989
56.700 10.707348
56.705 10.672962
56.710 10.405623
56.715 10.657603
56.720 10.280489
56.725 10.024365
56.730 9.921641
56.735 9.808969
56.740 9.723696
56.745 9.882841
56.750 9.362887
56.755 9.815097
56.760 9.803042
56.765 9.815404
56.770 9.449813
56.775 9.205725
56.780 8.814584
56.785 8.25047
56.790 7.625494
56.795 7.596408
56.800 7.425394
56.805 7.716126
56.810 8.060305
56.815 8.336308
56.820 8.832381
56.825 9.016131
56.830 9.44448
56.835 9.599031
56.840 9.724627
56.845 9.457193
56.850 9.1747
56.855 9.003757
56.860 8.516327
56.865 8.53597
56.870 8.538366
56.875 8.300191
56.880 8.510118
56.885 8.972758
56.890 9.486089
56.895 9.567937
56.900 8.866577
56.905 8.533775
56.910 8.189609
56.915 8.147299
56.920 7.964241
56.925 7.877176
56.930 8.35216
56.935 8.420012
56.940 8.839472
56.945 8.863843
56.950 8.392121
56.955 8.459366
56.960 8.244073
56.965 8.057061
56.970 8.295791
56.975 7.890808
56.980 8.049378
56.985 8.09491
56.990 7.880133
56.995 8.069771
57.000 8.044149
57.005 7.74992
57.010 8.229564
57.015 8.586329
57.020 8.63937
57.025 8.924757
57.030 9.135324
57.035 9.538667
57.040 10.164485
57.045 9.747366
57.050 9.729546
57.055 9.731535
57.060 9.206456
57.065 8.799706
57.070 8.200876
57.075 7.502894
57.080 7.537889
57.085 7.495785
57.090 7.667518
57.095 7.663272
57.100 7.684953
57.105 8.102165
57.110 8.535186
57.115 8.405175
57.120 8.175429
57.125 8.289817
57.130 8.468956
57.135 8.572562
57.140 8.507451
57.145 8.349026
57.150 8.256465
57.155 8.195038
57.160 7.540914
57.165 7.524244
57.170 7.650275
57.175 7.425805
57.180 7.144177
57.185 7.635599
57.190 8.144843
57.195 8.545269
57.200 8.251336
57.205 8.366813
57.210 8.428366
57.215 8.657816
57.220 8.227092
57.225 8.027402
57.230 8.285231
57.235 8.245659
57.240 8.098469
57.245 8.245013
57.250 8.356861
57.255 8.042483
57.260 7.827173
57.265 7.661958
57.270 7.690223
57.275 7.490576
57.280 7.531269
57.285 7.942809
57.290 8.129644
57.295 8.329839
57.300 8.758153
57.305 8.706146
57.310 8.706097
57.315 8.737852
57.320 8.791011
57.325 9.723677
57.330 9.781417
57.335 9.830363
57.340 10.123829
57.345 10.238983
57.350 10.379957
57.355 10.529967
57.360 10.129458
57.365 10.179134
57.370 9.937959
57.375 9.770132
57.380 9.704244
57.385 9.283699
57.390 8.80731
57.395 8.688948
57.400 8.352333
57.405 7.884014
57.410 7.539532
57.415 7.693085
57.420 7.689333
57.425 7.843153
57.430 7.599912
57.435 7.587606
57.440 7.881947
57.445 7.854901
57.450 7.938469
57.455 7.924474
57.460 7.740319
57.465 7.657841
57.470 7.888746
57.475 7.872866
57.480 8.286929
57.485 8.115737
57.490 7.910118
57.495 7.785884
57.500 7.565896
57.505 7.508433
57.510 7.386024
57.515 6.927032
57.520 6.762686
57.525 7.105119
57.530 7.24179
57.535 7.685838
57.540 7.98493
57.545 8.365116
57.550 8.409115
57.555 8.305928
57.560 8.272374
57.565 8.295182
57.570 8.102808
57.575 8.19544
57.580 8.236439
57.585 8.40144
57.590 8.766754
57.595 8.839775
57.600 9.338738
57.605 9.363672
57.610 9.115689
57.615 9.227886
57.620 9.283275
57.625 9.77025
57.630 9.817733
57.635 9.35232
57.640 9.424239
57.645 9.667323
57.650 9.866398
57.655 9.770781
57.660 9.086632
57.665 8.611408
57.670 8.500255
57.675 8.660985
57.680 8.714984
57.685 8.862011
57.690 9.095197
57.695 9.383013
57.700 9.854276
57.705 10.070727
57.710 9.675707
57.715 9.326442
57.720 9.122945
57.725 8.947146
57.730 9.15083
57.735 8.632277
57.740 8.565199
57.745 8.550993
57.750 8.328206
57.755 8.115593
57.760 7.76322
57.765 7.798281
57.770 8.461502
57.775 8.602356
57.780 8.636521
57.785 8.579981
57.790 8.855607
57.795 8.696684
57.800 8.007082
57.805 7.470621
57.810 7.463017
57.815 7.689674
57.820 7.897767
57.825 8.113836
57.830 8.647051
57.835 9.135002
57.840 9.230746
57.845 9.081406
57.850 8.956579
57.855 8.801549
57.860 8.76006
57.865 8.418726
57.870 8.217534
57.875 8.303265
57.880 8.749567
57.885 8.852768
57.890 8.732149
57.895 8.329618
57.900 8.888137
57.905 9.083528
57.910 9.095298
57.915 8.917428
57.920 8.826476
57.925 8.674129
57.930 8.904728
57.935 8.226631
57.940 7.914566
57.945 7.550433
57.950 7.499847
57.955 7.463377
57.960 7.510659
57.965 7.298838
57.970 7.31424
57.975 7.724383
57.980 7.793637
57.985 7.725446
57.990 8.215309
57.995 8.475232
58.000 8.828844
58.005 8.980746
58.010 8.810435
58.015 9.095695
58.020 8.951912
58.025 8.91891
58.030 9.29127
58.035 9.248764
58.040 9.580258
58.045 9.485017
58.050 9.489102
58.055 9.496507
58.060 9.092642
58.065 8.576989
58.070 8.402723
58.075 8.333006
58.080 8.127355
58.085 8.143974
58.090 8.104126
58.095 8.312573
58.100 8.418615
58.105 8.610261
58.110 9.162786
58.115 9.189242
58.120 9.419433
58.125 9.722693
58.130 9.601774
58.135 10.00491
58.140 9.841438
58.145 9.341331
58.150 9.668532
58.155 9.921418
58.160 9.500894
58.165 9.405436
58.170 9.320162
58.175 8.969748
58.180 8.473054
58.185 7.820807
58.190 7.244064
58.195 7.307485
58.200 7.305963
58.205 7.070425
58.210 7.295215
58.215 7.839319
58.220 8.11749
58.225 7.903042
58.230 8.003332
58.235 7.855763
58.240 8.04116
58.245 8.31028
58.250 8.340501
58.255 8.508621
58.260 8.980114
58.265 9.237295
58.270 9.246019
58.275 8.990136
58.280 9.008507
58.285 9.055295
58.290 9.059264
58.295 9.147122
58.300 9.023338
58.305 9.264483
58.310 9.172894
58.315 8.898484
58.320 8.902577
58.325 8.844734
58.330 8.808914
58.335 8.91809
58.340 8.522469
58.345 8.703465
58.350 8.333074
58.355 7.916089
58.360 7.477769
58.365 6.887395
58.370 6.897789
58.375 7.165956
58.380 6.994455
58.385 7.220862
58.390 7.196022
58.395 7.366062
58.400 7.386399
58.405 7.208762
58.410 7.144203
58.415 7.637717
58.420 7.893198
58.425 8.122518
58.430 8.323619
58.435 8.315943
58.440 8.302095
58.445 8.309894
58.450 7.877883
58.455 7.566936
58.460 7.745972
58.465 7.9263
58.470 7.894112
58.475 7.752372
58.480 7.657634
58.485 7.855011
58.490 8.393128
58.495 8.015962
58.500 8.181581
58.505 8.846381
58.510 9.085248
58.515 9.032084
58.520 8.776518
58.525 8.239005
58.530 8.077289
58.535 7.599769
58.540 7.523226
58.545 7.768554
58.550 7.81228
58.555 7.921535
58.560 7.842855
58.565 8.21539
58.570 8.043078
58.575 7.803028
58.580 7.739839
58.585 7.893031
58.590 7.948081
58.595 7.856242
58.600 7.777544
58.605 7.880556
58.610 7.665792
58.615 7.819676
58.620 7.886519
58.625 8.299319
58.630 9.034334
58.635 8.978881
58.640 9.025094
58.645 8.88841
58.650 8.86503
58.655 8.950154
58.660 8.342456
58.665 8.274454
58.670 8.343896
58.675 8.356977
58.680 8.471869
58.685 8.401402
58.690 8.588988
58.695 8.944476
58.700 9.105218
58.705 9.240815
58.710 9.246203
58.715 9.417841
58.720 9.423397
58.725 9.496599
58.730 9.718789
58.735 9.409946
58.740 9.316337
58.745 9.575839
58.750 9.304701
58.755 9.011147
58.760 8.629333
58.765 8.245782
58.770 8.000717
58.775 8.125408
58.780 8.189918
58.785 8.610911
58.790 8.673116
58.795 8.571555
58.800 8.508171
58.805 8.585984
58.810 8.357972
58.815 8.255906
58.820 8.270506
58.825 8.627578
58.830 9.129767
58.835 9.226424
58.840 9.497293
58.845 9.591583
58.850 9.747739
58.855 9.705918
58.860 9.390344
58.865 8.799562
58.870 8.762086
58.875 8.369596
58.880 8.190094
58.885 7.841297
58.890 7.462985
58.895 7.526
58.900 7.753675
58.905 7.851764
58.910 7.837042
58.915 7.796022
58.920 8.075267
58.925 8.281678
58.930 7.724721
58.935 7.673985
58.940 7.729584
58.945 8.144354
58.950 8.272621
58.955 8.062585
58.960 8.06911
58.965 8.705124
58.970 8.881566
58.975 8.905362
58.980 8.988589
58.985 8.939027
58.990 8.917078
58.995 9.140468
59.000 9.094073
59.005 9.086061
59.010 8.917109
59.015 8.479053
59.020 8.740967
59.025 8.536213
59.030 8.401471
59.035 8.296637
59.040 8.184695
59.045 8.42643
59.050 8.595053
59.055 8.453231
59.060 8.381518
59.065 8.451758
59.070 8.227871
59.075 8.088085
59.080 7.625978
59.085 7.594419
59.090 7.741965
59.095 7.868598
59.100 7.879747
59.105 7.937191
59.110 7.940311
59.115 7.989718
59.120 7.936374
59.125 7.861921
59.130 8.185664
59.135 8.307761
59.140 8.506931
59.145 8.844317
59.150 9.119614
59.155 9.262639
59.160 9.029468
59.165 8.88548
59.170 8.806415
59.175 8.769526
59.180 8.261858
59.185 7.964921
59.190 8.142972
59.195 8.257732
59.200 7.977059
59.205 7.657073
59.210 7.82608
59.215 8.440631
59.220 8.377628
59.225 8.160322
59.230 8.062576
59.235 8.344476
59.240 8.611148
59.245 8.707356
59.250 8.594284
59.255 8.859094
59.260 8.87604
59.265 8.97764
59.270 8.671018
59.275 8.84357
59.280 8.884346
59.285 8.401971
59.290 8.421189
59.295 8.462058
59.300 8.624854
59.305 8.843485
59.310 8.625389
59.315 8.511826
59.320 8.894584
59.325 8.847801
59.330 8.268582
59.335 8.090199
59.340 8.008964
59.345 7.974879
59.350 7.792147
59.355 7.356106
59.360 7.22066
59.365 7.783199
59.370 7.895807
59.375 8.003094
59.380 8.33912
59.385 8.788113
59.390 9.336103
59.395 9.340829
59.400 9.047101
59.405 9.00272
59.410 8.889104
59.415 8.80845
59.420 8.799193
59.425 8.773315
59.430 9.114853
59.435 9.199462
59.440 9.45195
59.445 9.299322
59.450 8.801289
59.455 8.395433
59.460 8.376827
59.465 8.311482
59.470 8.291362
59.475 7.847372
59.480 8.011001
59.485 8.487513
59.490 8.895617
59.495 9.09349
59.500 9.119399
59.505 9.104555
59.510 9.186021
59.515 9.10998
59.520 8.773501
59.525 8.213254
59.530 7.893504
59.535 7.553311
59.540 7.159445
59.545 6.73561
59.550 6.546894
59.555 6.840394
59.560 6.753411
59.565 6.477271
59.570 6.801314
59.575 7.435247
59.580 8.164931
59.585 8.364504
59.590 8.401139
59.595 8.635749
59.600 9.083073
59.605 8.880957
59.610 8.797915
59.615 8.545735
59.620 8.244721
59.625 7.906735
59.630 7.811896
59.635 7.562847
59.640 7.754325
59.645 7.760258
59.650 8.071379
59.655 8.570872
59.660 9.00846
59.665 9.518068
59.670 9.543032
59.675 9.791069
59.680 9.921876
59.685 9.734484
59.690 9.498152
59.695 9.596831
59.700 9.59082
59.705 9.323233
59.710 8.881962
59.715 8.694063
59.720 8.583284
59.725 8.508886
59.730 8.129422
59.735 8.36621
59.740 9.208874
59.745 9.537375
59.750 9.974751
59.755 9.898659
59.760 9.887949
59.765 10.072171
59.770 9.731608
59.775 9.213313
59.780 8.757908
59.785 8.8829
59.790 9.121956
59.795 9.176117
59.800 9.434726
59.805 9.759488
59.810 9.973765
59.815 9.99247
59.820 9.783173
59.825 10.039412
59.830 9.957907
59.835 9.702473
59.840 9.735193
59.845 9.975478
59.850 10.013306
59.855 9.871511
59.860 9.535147
59.865 9.601707
59.870 9.584403
59.875 9.624361
59.880 9.378372
59.885 9.224509
59.890 9.277737
59.895 9.53317
59.900 9.723735
59.905 9.664786
59.910 9.412296
59.915 9.4747
59.920 9.463562
59.925 9.645062
59.930 9.465441
59.935 9.554759
59.940 9.128873
59.945 8.840396
59.950 8.697934
59.955 8.555082
59.960 8.121903
59.965 7.72674
59.970 7.381056
59.975 7.81319
59.980 7.624505
59.985 7.554889
59.990 7.507386
59.995 7.906959
60.000 8.383908
60.005 8.606258
60.010 8.705583
60.015 9.349549
60.020 9.852144
60.025 10.250973
60.030 10.147035
60.035 10.006472
60.040 9.908324
60.045 10.205339
60.050 9.972035
60.055 9.556555
60.060 8.986464
60.065 8.521532
60.070 8.593551
60.075 8.549958
60.080 8.137976
60.085 8.066232
60.090 8.124068
60.095 8.453042
60.100 8.568157
60.105 8.350169
60.110 8.197186
60.115 8.132441
60.120 7.995101
60.125 8.110729
60.130 7.850117
60.135 7.636662
60.140 7.594072
60.145 8.019489
60.150 8.218501
60.155 7.950627
60.160 7.604318
60.165 7.918424
60.170 8.233878
60.175 8.193395
60.180 7.913596
60.185 7.761971
60.190 8.038238
60.195 8.275388
60.200 8.178634
60.205 8.207021
60.210 8.17187
60.215 8.054361
60.220 8.101727
60.225 8.443115
60.230 8.366216
60.235 8.137312
60.240 8.040747
60.245 7.753035
60.250 7.397541
60.255 6.72349
60.260 6.214236
60.265 5.923899
60.270 6.173141
60.275 6.389293
60.280 6.527146
60.285 6.73698
60.290 7.198411
60.295 7.262828
60.300 7.607622
60.305 7.464066
60.310 7.200693
60.315 7.373689
60.320 7.286458
60.325 7.102553
60.330 7.242664
60.335 7.00555
60.340 6.980844
60.345 7.704518
60.350 7.773479
60.355 7.926695
60.360 7.907577
60.365 7.859075
60.370 7.581004
60.375 7.634246
60.380 7.518952
60.385 7.6059
60.390 7.781731
60.395 7.894707
60.400 8.016558
60.405 8.493665
60.410 8.407797
60.415 8.148902
60.420 8.311086
60.425 8.206377
60.430 7.949929
60.435 7.550848
60.440 7.362615
60.445 7.404593
60.450 7.406612
60.455 7.098798
60.460 7.19387
60.465 7.832215
60.470 8.609612
60.475 8.912984
60.480 9.065573
60.485 8.78442
60.490 8.648124
60.495 8.855423
60.500 8.910233
60.505 8.752981
60.510 8.456731
60.515 8.166018
60.520 8.117106
60.525 7.979171
60.530 7.438824
60.535 7.124084
60.540 7.352859
60.545 7.903123
60.550 8.22723
60.555 8.851396
60.560 9.284528
60.565 9.408257
60.570 9.41818
60.575 9.380621
60.580 8.988662
60.585 9.305725
60.590 9.182855
60.595 8.844533
60.600 9.127943
60.605 9.144258
60.610 8.711271
60.615 8.864812
60.620 8.758356
60.625 8.696452
60.630 9.305567
60.635 9.338576
60.640 9.535954
60.645 9.876685
60.650 9.759494
60.655 9.269131
60.660 9.143128
60.665 8.926322
60.670 9.177212
60.675 9.158719
60.680 8.634151
60.685 8.520927
60.690 8.629795
60.695 8.531876
60.700 8.279352
60.705 7.419007
60.710 7.364568
60.715 7.610562
60.720 7.532389
60.725 7.856887
60.730 8.160988
60.735 8.395864
60.740 8.842276
60.745 8.853388
60.750 9.28722
60.755 9.477127
60.760 9.788916
60.765 9.895947
60.770 9.977781
60.775 10.086527
60.780 9.898177
60.785 9.430823
60.790 9.172764
60.795 8.681709
60.800 8.698298
60.805 9.030803
60.810 8.773585
60.815 8.579425
60.820 8.370944
60.825 8.417174
60.830 8.930255
60.835 8.760879
60.840 8.460349
60.845 8.525927
60.850 8.511165
60.855 8.79926
60.860 8.85274
60.865 8.315096
60.870 7.960995
60.875 7.528527
60.880 7.30585
60.885 7.458983
60.890 7.383288
60.895 7.169521
60.900 6.811538
60.905 6.869697
60.910 7.414842
60.915 7.92601
60.920 7.695976
60.925 7.710708
60.930 7.696863
60.935 8.217783
60.940 8.235014
60.945 7.78268
60.950 7.321532
60.955 6.892599
60.960 6.712
60.965 7.126443
60.970 7.177881
60.975 7.328044
60.980 7.719036
60.985 8.40209
60.990 9.159869
60.995 9.507998
61.000 8.907471
61.005 8.843734
61.010 8.448485
61.015 7.851235
61.020 7.892477
61.025 7.57911
61.030 7.219809
61.035 7.424562
61.040 7.904962
61.045 8.569805
61.050 8.969251
61.055 9.024185
61.060 9.392308
61.065 9.76119
61.070 9.729816
61.075 9.139597
61.080 8.740775
61.085 8.829004
61.090 8.471261
61.095 7.832877
61.100 7.661414
61.105 7.367949
61.110 7.317211
61.115 7.437529
61.120 7.186893
61.125 7.591639
61.130 7.804136
61.135 7.958753
61.140 8.437449
61.145 8.435
61.150 7.978617
61.155 7.983411
61.160 7.650805
61.165 7.658076
61.170 7.553263
61.175 7.550586
61.180 7.567094
61.185 8.012536
61.190 7.986519
61.195 7.982467
61.200 8.156413
61.205 7.980295
61.210 7.879317
61.215 8.065875
61.220 8.177353
61.225 8.251854
61.230 8.353101
61.235 8.36119
61.240 8.229444
61.245 7.842763
61.250 7.753169
61.255 7.473515
61.260 7.769685
61.265 7.882786
61.270 8.038726
61.275 8.303961
61.280 8.513119
61.285 8.587538
61.290 8.806885
61.295 8.473385
61.300 7.947379
61.305 7.502612
61.310 7.421494
61.315 7.30015
61.320 7.567297
61.325 7.549426
61.330 7.483641
61.335 8.038523
61.340 8.551569
61.345 8.769833
61.350 8.785375
61.355 8.503174
61.360 8.253948
61.365 8.525216
61.370 8.577297
61.375 8.078826
61.380 8.154842
61.385 8.207941
61.390 7.943476
61.395 8.08235
61.400 7.75899
61.405 7.880201
61.410 8.704394
61.415 8.636882
61.420 8.968006
61.425 9.222805
61.430 8.906985
61.435 9.072302
61.440 8.960512
61.445 8.401215
61.450 8.537705
61.455 8.352121
61.460 8.448005
61.465 8.952443
61.470 8.975715
61.475 8.79979
61.480 8.827222
61.485 8.704167
61.490 8.662227
61.495 8.798718
61.500 8.420737
61.505 8.364064
61.510 8.241009
61.515 8.179958
61.520 8.232002
61.525 8.362154
61.530 8.277862
61.535 8.276466
61.540 8.08305
61.545 8.136385
61.550 8.246571
61.555 8.491941
61.560 8.486747
61.565 8.483832
61.570 8.870108
61.575 9.0776
61.580 9.062694
61.585 8.588297
61.590 8.143046
61.595 8.047606
61.600 7.962592
61.605 7.637661
61.610 7.797056
61.615 7.973286
61.620 8.431106
61.625 8.657255
61.630 8.779151
61.635 8.709105
61.640 8.924938
61.645 8.915845
61.650 9.062548
61.655 8.80652
61.660 8.36255
61.665 8.296673
61.670 8.297203
61.675 7.993513
61.680 8.362796
61.685 8.451133
61.690 8.634976
61.695 8.556531
61.700 8.571957
61.705 8.256048
61.710 8.052246
61.715 7.167224
61.720 7.074358
61.725 6.9259
61.730 7.21942
61.735 7.27581
61.740 7.432
61.745 8.113124
61.750 8.692398
61.755 8.683225
61.760 9.091653
61.765 9.416049
61.770 9.826584
61.775 10.254327
61.780 9.617095
61.785 8.950053
61.790 8.933551
61.795 9.111979
61.800 8.870917
61.805 8.529225
61.810 8.320806
61.815 8.634322
61.820 9.138491
61.825 8.823215
61.830 8.143412
61.835 7.733584
61.840 7.484835
61.845 7.346397
61.850 7.298607
61.855 7.187274
61.860 7.481326
61.865 7.903596
61.870 8.328797
61.875 8.776704
61.880 9.043986
61.885 9.093453
61.890 9.233405
61.895 9.361591
61.900 9.38487
61.905 9.24932
61.910 9.254309
61.915 9.165521
61.920 9.251956
61.925 9.370208
61.930 9.171407
61.935 8.938623
61.940 8.711161
61.945 8.830758
61.950 8.716947
61.955 8.442231
61.960 8.404404
61.965 8.574644
61.970 9.041686
61.975 9.232367
61.980 9.012287
61.985 9.225721
61.990 9.007425
61.995 8.811455
62.000 8.751204
62.005 8.534899
62.010 8.398227
62.015 8.184678
62.020 8.152108
62.025 8.306852
62.030 8.131967
62.035 8.239139
62.040 8.242148
62.045 8.445577
62.050 8.597056
62.055 8.69348
62.060 8.931487
62.065 9.106277
62.070 8.854932
62.075 8.950382
62.080 9.033006
62.085 9.405108
62.090 9.243692
62.095 8.835696
62.100 8.508879
62.105 8.580407
62.110 8.475215
62.115 8.37749
62.120 8.074183
62.125 8.241148
62.130 8.492072
62.135 8.672393
62.140 8.796391
62.145 8.74083
62.150 8.602164
62.155 8.491108
62.160 8.674045
62.165 9.040757
62.170 9.555203
62.175 9.609334
62.180 9.857332
62.185 10.125337
62.190 10.035695
62.195 9.447736
62.200 8.921658
62.205 8.48617
62.210 8.343839
62.215 8.194483
62.220 8.19104
62.225 8.181425
62.230 8.629461
62.235 8.729729
62.240 8.707632
62.245 8.558247
62.250 8.392498
62.255 8.449243
62.260 8.479608
62.265 8.069189
62.270 7.830184
62.275 8.213302
62.280 8.680566
62.285 8.727294
62.290 8.521458
62.295 8.769498
62.300 9.301661
62.305 9.86831
62.310 9.892907
62.315 9.413178
62.320 9.217124
62.325 9.690476
62.330 9.849244
62.335 9.710815
62.340 9.308402
62.345 8.803429
62.350 8.899384
62.355 9.383702
62.360 9.000059
62.365 8.773129
62.370 8.670539
62.375 8.814803
62.380 9.349498
62.385 9.346008
62.390 9.001522
62.395 9.348921
62.400 9.617498
62.405 9.656228
62.410 10.000751
62.415 9.786723
62.420 9.751034
62.425 9.690151
62.430 9.284814
62.435 9.090234
62.440 8.895069
62.445 8.780724
62.450 8.979979
62.455 9.307846
62.460 9.391608
62.465 9.773226
62.470 10.075183
62.475 10.346109
62.480 10.174524
62.485 10.028042
62.490 9.659125
62.495 9.467528
62.500 9.232279
62.505 8.624651
62.510 8.44029
62.515 8.772532
62.520 8.853077
62.525 9.188883
62.530 9.36535
62.535 9.575041
62.540 9.601363
62.545 9.453128
62.550 9.357372
62.555 9.163352
62.560 8.645791
62.565 8.342483
62.570 8.436367
62.575 8.656678
62.580 8.658541
62.585 8.351357
62.590 8.727879
62.595 9.522354
62.600 9.972723
62.605 9.686586
62.610 9.541636
62.615 9.385942
62.620 9.747478
62.625 9.510694
62.630 9.247971
62.635 9.308891
62.640 9.362633
62.645 9.799902
62.650 10.215229
62.655 10.285873
62.660 10.422009
62.665 10.229039
62.670 9.878194
62.675 10.135777
62.680 10.119864
62.685 9.75002
62.690 9.939922
62.695 10.200916
62.700 10.378833
62.705 10.971719
62.710 10.764857
62.715 10.889157
62.720 11.00113
62.725 10.814175
62.730 10.723848
62.735 10.534639
62.740 10.32311
62.745 10.247678
62.750 9.796776
62.755 10.007528
62.760 9.708073
62.765 10.11714
62.770 10.500837
62.775 10.350479
62.780 10.435131
62.785 10.727463
62.790 10.503354
62.795 10.516945
62.800 9.833143
62.805 9.462846
62.810 9.759459
62.815 10.263465
62.820 10.752666
62.825 11.134647
62.830 11.148365
62.835 11.357589
62.840 11.714987
62.845 11.55426
62.850 11.251295
62.855 10.897113
62.860 10.618303
62.865 10.588133
62.870 10.759009
62.875 10.732117
62.880 11.114728
62.885 10.769777
62.890 10.428411
62.895 10.810474
62.900 10.995199
62.905 11.045842
62.910 11.004831
62.915 10.371549
62.920 10.182088
62.925 10.168256
62.930 9.72321
62.935 9.271827
62.940 8.895876
62.945 8.456557
62.950 8.418594
62.955 8.81903
62.960 8.971889
62.965 9.049276
62.970 9.289261
62.975 9.177788
62.980 9.420131
62.985 9.170563
62.990 9.01619
62.995 8.846035
63.000 8.838741
63.005 9.000584
63.010 9.142141
63.015 8.932561
63.020 8.878207
63.025 9.228669
63.030 9.092534
63.035 8.677466
63.040 8.312246
63.045 7.746805
63.050 7.765056
63.055 7.941149
63.060 7.782175
63.065 7.994383
63.070 8.263722
63.075 7.938575
63.080 8.024364
63.085 8.068172
63.090 8.099041
63.095 7.853822
63.100 7.772342
63.105 7.911552
63.110 8.089864
63.115 8.395299
63.120 8.847735
63.125 8.973268
63.130 9.117571
63.135 9.089822
63.140 8.968416
63.145 9.037366
63.150 8.656668
63.155 8.322699
63.160 8.239742
63.165 7.953034
63.170 7.672288
63.175 7.426989
63.180 7.571234
63.185 7.716931
63.190 7.792789
63.195 7.561744
63.200 7.618628
63.205 7.607432
63.210 7.756888
63.215 7.730291
63.220 7.66712
63.225 7.70779
63.230 7.93783
63.235 7.83383
63.240 7.728169
63.245 7.400118
63.250 7.831758
63.255 8.099026
63.260 8.047354
63.265 8.355802
63.270 8.805305
63.275 9.609725
63.280 9.928946
63.285 9.7519
63.290 9.499884
63.295 9.045202
63.300 8.681615
63.305 8.352234
63.310 8.210816
63.315 8.368746
63.320 8.010566
63.325 8.222356
63.330 8.497693
63.335 8.41024
63.340 8.707882
63.345 8.532496
63.350 8.731193
63.355 8.874124
63.360 9.145302
63.365 9.154677
63.370 9.266402
63.375 9.188919
63.380 9.199632
63.385 8.947587
63.390 9.212398
63.395 8.635078
63.400 8.477798
63.405 8.17477
63.410 7.784095
63.415 7.56658
63.420 8.157681
63.425 8.056185
63.430 8.322861
63.435 8.208802
63.440 8.40787
63.445 8.755057
63.450 8.898971
63.455 8.237754
63.460 8.304591
63.465 8.339023
63.470 8.582016
63.475 8.303461
63.480 8.155944
63.485 8.369467
63.490 8.244475
63.495 8.089929
63.500 7.854642
63.505 7.694433
63.510 7.765064
63.515 7.781192
63.520 7.524838
63.525 7.642697
63.530 8.170733
63.535 8.550756
63.540 8.960994
63.545 9.067034
63.550 8.976088
63.555 8.695817
63.560 8.128389
63.565 7.742029
63.570 7.525778
63.575 7.700888
63.580 7.832627
63.585 8.014565
63.590 8.435728
63.595 8.745778
63.600 8.244981
63.605 8.357873
63.610 8.099483
63.615 7.97013
63.620 7.918561
63.625 7.670838
63.630 8.100091
63.635 8.418355
63.640 8.379574
63.645 8.33994
63.650 8.456538
63.655 8.538263
63.660 8.877915
63.665 8.635751
63.670 8.923085
63.675 9.289214
63.680 9.426771
63.685 9.350509
63.690 9.090507
63.695 8.727806
63.700 8.669193
63.705 8.217988
63.710 7.748202
63.715 7.365841
63.720 7.204915
63.725 7.085665
63.730 7.004129
63.735 7.02501
63.740 7.268473
63.745 7.13849
63.750 7.271733
63.755 7.630949
63.760 7.85304
63.765 7.904887
63.770 7.82689
63.775 7.662236
63.780 8.057915
63.785 7.978637
63.790 7.956302
63.795 8.062581
63.800 8.281696
63.805 8.641874
63.810 8.497616
63.815 8.69481
63.820 8.521741
63.825 7.943321
63.830 7.804377
63.835 7.68666
63.840 7.415863
63.845 7.422661
63.850 6.94085
63.855 7.446224
63.860 8.058519
63.865 8.039143
63.870 7.774209
63.875 7.841349
63.880 7.988481
63.885 8.126739
63.890 7.598606
63.895 7.528965
63.900 7.853333
63.905 7.815182
63.910 7.478322
63.915 7.21451
63.920 7.317173
63.925 7.684922
63.930 7.355119
63.935 7.119113
63.940 7.47584
63.945 8.175474
63.950 8.738509
63.955 8.964627
63.960 9.421658
63.965 9.618773
63.970 9.394009
63.975 9.116753
63.980 8.715782
63.985 8.143677
63.990 7.61006
63.995 7.315613
64.000 7.131363
64.005 7.165531
64.010 7.653269
64.015 8.207187
64.020 8.644977
64.025 8.31088
64.030 8.156415
64.035 8.61591
64.040 8.602295
64.045 7.966329
64.050 7.490444
64.055 7.359874
64.060 7.637738
64.065 7.495554
64.070 7.47938
64.075 7.616868
64.080 7.894993
64.085 8.582678
64.090 9.192137
64.095 9.344743
64.100 9.341702
64.105 9.312698
64.110 9.420904
64.115 9.367546
64.120 8.992542
64.125 8.486796
64.130 8.356023
64.135 8.529621
64.140 8.64928
64.145 8.44524
64.150 8.116505
64.155 7.800003
64.160 7.840598
64.165 7.852849
64.170 8.038976
64.175 7.791648
64.180 7.805799
64.185 7.993118
64.190 7.904966
64.195 8.024573
64.200 7.874961
64.205 7.575432
64.210 7.677322
64.215 7.671326
64.220 7.566247
64.225 7.288593
64.230 7.303819
64.235 7.210627
64.240 7.16206
64.245 7.188819
64.250 7.180286
64.255 7.598029
64.260 7.91283
64.265 8.141382
64.270 8.067626
64.275 8.038375
64.280 7.876029
64.285 7.995793
64.290 7.817641
64.295 7.877594
64.300 7.76631
64.305 8.04723
64.310 8.26134
64.315 8.543816
64.320 8.321042
64.325 8.358553
64.330 8.598225
64.335 8.430367
64.340 8.458368
64.345 8.520938
64.350 8.226144
64.355 8.434219
64.360 8.209282
64.365 8.015601
64.370 8.511344
64.375 8.741776
64.380 9.106162
64.385 9.509175
64.390 9.609001
64.395 9.874243
64.400 9.947974
64.405 9.922226
64.410 10.081987
64.415 9.569713
64.420 9.557137
64.425 9.493857
64.430 9.431931
64.435 9.676349
64.440 9.925828
64.445 9.374454
64.450 9.489309
64.455 9.235074
64.460 9.027245
64.465 8.567153
64.470 8.374215
64.475 8.285183
64.480 8.709454
64.485 8.561324
64.490 8.833998
64.495 8.874269
64.500 9.143521
64.505 8.826646
64.510 8.668025
64.515 8.609138
64.520 9.08198
64.525 8.959546
64.530 9.539067
64.535 10.002593
64.540 10.551752
64.545 10.533307
64.550 10.532233
64.555 10.397298
64.560 10.483745
64.565 10.294537
64.570 10.397841
64.575 10.204167
64.580 10.250814
64.585 10.13799
64.590 10.294022
64.595 10.720889
64.600 10.473117
64.605 9.907507
64.610 9.734986
64.615 10.090874
64.620 10.339638
64.625 10.445806
64.630 10.099759
64.635 10.357361
64.640 10.496939
64.645 10.171704
64.650 9.507371
64.655 9.176719
64.660 9.187491
64.665 9.336333
64.670 9.399605
64.675 9.468243
64.680 10.058281
64.685 10.914867
64.690 11.267832
64.695 11.515052
64.700 11.530996
64.705 11.602975
64.710 11.756708
64.715 11.770013
64.720 11.654072
64.725 11.425902
64.730 11.104416
64.735 10.910483
64.740 11.202522
64.745 11.443023
64.750 12.204691
64.755 12.56138
64.760 12.774459
64.765 13.288341
64.770 14.24961
64.775 14.25028
64.780 13.85549
64.785 12.873698
64.790 12.493056
64.795 12.955045
64.800 13.031891
64.805 12.910287
64.810 13.628669
64.815 14.604898
64.820 15.318648
64.825 15.495926
64.830 15.318753
64.835 15.469276
64.840 14.942419
64.845 14.668635
64.850 14.629054
64.855 14.826212
64.860 15.021585
64.865 15.426402
64.870 15.584016
64.875 15.819389
64.880 15.766403
64.885 15.547359
64.890 15.838398
64.895 16.478003
64.900 16.494482
64.905 16.383656
64.910 16.784441
64.915 16.95134
64.920 18.240484
64.925 18.072023
64.930 17.525991
64.935 17.156746
64.940 17.399693
64.945 17.306484
64.950 17.409143
64.955 16.449911
64.960 16.488541
64.965 16.750929
64.970 16.777332
64.975 17.01837
64.980 17.487684
64.985 17.830132
64.990 18.053986
64.995 18.515999
65.000 19.006113
65.005 19.498508
65.010 19.743307
65.015 19.881023
65.020 20.230562
65.025 20.671597
65.030 20.642294
65.035 20.731506
65.040 20.53014
65.045 19.943766
65.050 19.44091
65.055 19.188183
65.060 18.797777
65.065 18.94953
65.070 18.809361
65.075 18.801504
65.080 19.01594
65.085 18.889944
65.090 18.764174
65.095 18.655275
65.100 18.059666
65.105 17.625513
65.110 17.204458
65.115 17.17127
65.120 17.636364
65.125 17.352684
65.130 17.011574
65.135 16.917828
65.140 16.9883
65.145 17.083088
65.150 16.862545
65.155 16.715385
65.160 17.363874
65.165 17.096552
65.170 16.95442
65.175 16.821356
65.180 16.353857
65.185 16.277531
65.190 15.56848
65.195 14.595731
65.200 14.588684
65.205 14.353108
65.210 13.862714
65.215 13.652993
65.220 13.285936
65.225 13.294221
65.230 13.341244
65.235 13.46304
65.240 13.547816
65.245 13.99659
65.250 14.119233
65.255 14.089561
65.260 13.735539
65.265 13.425054
65.270 13.121626
65.275 13.352941
65.280 12.96416
65.285 12.814129
65.290 12.720568
65.295 12.954527
65.300 12.948975
65.305 12.434328
65.310 11.816869
65.315 11.783649
65.320 11.510766
65.325 11.160676
65.330 10.985761
65.335 10.967964
65.340 10.778228
65.345 10.594154
65.350 10.613286
65.355 10.648574
65.360 10.319117
65.365 10.081413
65.370 9.648781
65.375 10.206984
65.380 10.599993
65.385 10.482522
65.390 10.16358
65.395 10.172685
65.400 10.031563
65.405 9.854057
65.410 9.329056
65.415 8.911637
65.420 8.969011
65.425 9.42815
65.430 9.349281
65.435 9.554093
65.440 10.0064
65.445 10.098324
65.450 9.978022
65.455 9.538568
65.460 9.203249
65.465 9.083078
65.470 9.048682
65.475 9.111037
65.480 8.942698
65.485 9.051889
65.490 8.956213
65.495 9.030324
65.500 9.11368
65.505 8.938872
65.510 9.152386
65.515 9.676682
65.520 9.472915
65.525 10.140828
65.530 10.384176
65.535 10.717058
65.540 10.726121
65.545 10.521417
65.550 10.402253
65.555 10.443571
65.560 10.015669
65.565 9.562895
65.570 9.473636
65.575 9.269697
65.580 8.854563
65.585 8.860872
65.590 8.996952
65.595 9.075023
65.600 9.284099
65.605 8.890242
65.610 8.939546
65.615 9.197668
65.620 9.209592
65.625 9.136065
65.630 9.101873
65.635 9.137321
65.640 9.64321
65.645 9.657195
65.650 9.384879
65.655 9.112652
65.660 8.810273
65.665 8.681685
65.670 8.627681
65.675 8.458283
65.680 8.827642
65.685 8.679305
65.690 8.590315
65.695 9.120559
65.700 9.537807
65.705 9.248784
65.710 8.74311
65.715 8.194724
65.720 7.961514
65.725 8.213807
65.730 8.181158
65.735 8.320705
65.740 8.715726
65.745 8.911149
65.750 9.295861
65.755 10.015577
65.760 9.871376
65.765 9.849031
65.770 9.599998
65.775 9.901229
65.780 10.199234
65.785 9.798214
65.790 9.287734
65.795 9.298194
65.800 9.127645
65.805 8.830379
65.810 8.424189
65.815 8.56486
65.820 8.689249
65.825 8.916869
65.830 8.528719
65.835 8.518744
65.840 8.43493
65.845 8.253004
65.850 7.955654
65.855 7.690584
65.860 7.632442
65.865 7.712347
65.870 7.367311
65.875 7.587364
65.880 7.755575
65.885 7.651056
65.890 7.5568
65.895 7.18306
65.900 7.363157
65.905 7.488781
65.910 7.783629
65.915 7.977107
65.920 8.245968
65.925 8.699545
65.930 8.913174
65.935 8.992019
65.940 9.169856
65.945 8.893457
65.950 8.625174
65.955 8.399656
65.960 8.365005
65.965 8.402885
65.970 8.110596
65.975 7.92835
65.980 7.939296
65.985 8.049232
65.990 8.373652
65.995 8.392715
66.000 8.453412
66.005 8.483855
66.010 8.54746
66.015 8.869555
66.020 8.911231
66.025 8.642402
66.030 8.646265
66.035 8.930964
66.040 9.31718
66.045 9.084967
66.050 8.79009
66.055 8.688444
66.060 8.889978
66.065 8.807408
66.070 8.395918
66.075 8.372735
66.080 8.553013
66.085 8.251017
66.090 8.332749
66.095 8.243555
66.100 7.760854
66.105 7.77611
66.110 7.805363
66.115 7.798169
66.120 8.012362
66.125 8.192967
66.130 8.597456
66.135 9.000029
66.140 9.191092
66.145 8.798937
66.150 9.112215
66.155 9.403147
66.160 8.912567
66.165 8.99063
66.170 9.076651
66.175 8.900532
66.180 9.160399
66.185 8.991595
66.190 8.429045
66.195 8.50514
66.200 8.833499
66.205 9.528881
66.210 9.519025
66.215 9.491428
66.220 9.567172
66.225 9.898221
66.230 9.691839
66.235 8.953997
66.240 8.738406
66.245 8.887851
66.250 9.228791
66.255 9.07283
66.260 9.408422
66.265 9.629318
66.270 9.980309
66.275 9.968423
66.280 9.145014
66.285 8.66041
66.290 8.929248
66.295 8.648513
66.300 8.563891
66.305 8.254533
66.310 8.599189
66.315 9.499401
66.320 9.878907
66.325 9.979463
66.330 9.964687
66.335 10.148266
66.340 10.433116
66.345 10.282002
66.350 10.049586
66.355 9.526702
66.360 9.136566
66.365 9.120354
66.370 8.999361
66.375 8.590432
66.380 8.662531
66.385 9.083075
66.390 9.086609
66.395 9.005164
66.400 9.314515
66.405 9.32046
66.410 9.86046
66.415 9.739124
66.420 9.515371
66.425 9.556155
66.430 9.573195
66.435 9.487387
66.440 9.827889
66.445 9.592712
66.450 9.591303
66.455 9.629217
66.460 9.916009
66.465 10.195012
66.470 9.936558
66.475 9.874902
66.480 9.387247
66.485 9.134897
66.490 9.156529
66.495 8.901792
66.500 8.73638
66.505 8.674369
66.510 8.577908
66.515 8.170806
66.520 7.946442
66.525 7.885802
66.530 8.042167
66.535 8.28182
66.540 8.27487
66.545 8.508368
66.550 8.743375
66.555 8.876073
66.560 8.992616
66.565 9.336709
66.570 9.405787
66.575 9.272552
66.580 8.851106
66.585 8.768657
66.590 8.333123
66.595 7.999713
66.600 7.772365
66.605 7.690908
66.610 7.596568
66.615 7.434691
66.620 7.501046
66.625 7.511277
66.630 7.513274
66.635 7.16426
66.640 7.405716
66.645 7.641356
66.650 8.222161
66.655 8.651938
66.660 8.929332
66.665 8.900871
66.670 8.790517
66.675 8.40542
66.680 8.582211
66.685 8.296082
66.690 8.471982
66.695 8.814634
66.700 8.910192
66.705 9.063587
66.710 9.0555
66.715 8.766951
66.720 9.266988
66.725 8.831262
66.730 8.689775
66.735 8.931914
66.740 9.167127
66.745 9.19874
66.750 9.299063
66.755 9.077538
66.760 8.836255
66.765 8.951048
66.770 8.925692
66.775 8.702595
66.780 8.684752
66.785 8.628766
66.790 8.32605
66.795 8.44287
66.800 8.798942
66.805 8.860012
66.810 8.968878
66.815 8.953385
66.820 8.699614
66.825 8.852297
66.830 8.473694
66.835 7.762233
66.840 7.346686
66.845 7.239797
66.850 7.556545
66.855 7.599072
66.860 7.223074
66.865 6.904882
66.870 6.939228
66.875 6.647054
66.880 6.315994
66.885 6.238347
66.890 6.36089
66.895 6.654427
66.900 6.803546
66.905 6.807512
66.910 6.973403
66.915 7.123059
66.920 6.8543
66.925 6.705841
66.930 6.782916
66.935 7.025689
66.940 6.78573
66.945 6.995913
66.950 7.189079
66.955 7.060106
66.960 7.269697
66.965 7.718994
66.970 7.682452
66.975 8.00262
66.980 8.368118
66.985 8.280074
66.990 8.444892
66.995 8.254394
67.000 8.101273
67.005 8.59373
67.010 8.71854
67.015 8.017089
67.020 8.063692
67.025 8.005927
67.030 8.182233
67.035 7.970856
67.040 7.585214
67.045 8.107313
67.050 8.284633
67.055 8.080758
67.060 7.943763
67.065 7.907551
67.070 7.874163
67.075 8.200406
67.080 7.86618
67.085 7.977168
67.090 8.042717
67.095 8.288592
67.100 8.676942
67.105 8.886425
67.110 8.640676
67.115 8.453524
67.120 8.787193
67.125 9.099918
67.130 9.492344
67.135 9.177228
67.140 8.768603
67.145 8.66835
67.150 8.663785
67.155 8.701517
67.160 8.535094
67.165 7.985285
67.170 8.142427
67.175 8.427817
67.180 8.793397
67.185 8.887378
67.190 9.013858
67.195 9.020218
67.200 9.204492
67.205 8.891567
67.210 8.437174
67.215 8.367195
67.220 8.225416
67.225 8.284945
67.230 8.408402
67.235 8.242022
67.240 8.465874
67.245 8.517753
67.250 8.706542
67.255 9.023981
67.260 8.617354
67.265 8.534824
67.270 8.807424
67.275 8.721799
67.280 9.030703
67.285 9.017628
67.290 8.782351
67.295 8.991394
67.300 8.822366
67.305 8.667431
67.310 8.976815
67.315 8.887848
67.320 9.021874
67.325 9.07215
67.330 8.894461
67.335 8.956904
67.340 8.814889
67.345 8.346593
67.350 7.913582
67.355 7.626401
67.360 7.798226
67.365 8.065648
67.370 8.105354
67.375 8.270609
67.380 8.066629
67.385 8.23103
67.390 7.770754
67.395 7.696107
67.400 7.50236
67.405 7.291237
67.410 7.473077
67.415 8.039985
67.420 7.980095
67.425 7.961455
67.430 7.741724
67.435 7.709937
67.440 7.791794
67.445 7.61191
67.450 7.509168
67.455 7.669359
67.460 8.354474
67.465 8.606495
67.470 8.659004
67.475 9.065583
67.480 9.147321
67.485 9.190762
67.490 9.397491
67.495 9.327589
67.500 9.757626
67.505 9.710496
67.510 9.857131
67.515 9.986906
67.520 9.972075
67.525 9.936216
67.530 9.701507
67.535 9.008344
67.540 9.224428
67.545 9.148145
67.550 8.888156
67.555 8.847256
67.560 8.739668
67.565 8.920259
67.570 9.43517
67.575 9.509671
67.580 9.247357
67.585 9.728806
67.590 10.228572
67.595 10.43539
67.600 10.122871
67.605 9.97339
67.610 9.981791
67.615 10.220224
67.620 10.469854
67.625 10.143811
67.630 9.973228
67.635 10.35328
67.640 9.888206
67.645 9.899243
67.650 9.592937
67.655 9.316528
67.660 9.21437
67.665 9.34768
67.670 9.255157
67.675 9.329199
67.680 9.081702
67.685 8.832088
67.690 8.223114
67.695 8.156893
67.700 7.976281
67.705 7.835289
67.710 7.786877
67.715 7.936754
67.720 8.506084
67.725 8.781793
67.730 8.639837
67.735 8.569886
67.740 8.842566
67.745 8.887951
67.750 8.919909
67.755 8.682675
67.760 8.63029
67.765 8.642551
67.770 8.846629
67.775 8.911563
67.780 8.863082
67.785 8.464305
67.790 8.100112
67.795 8.075347
67.800 8.093413
67.805 7.760337
67.810 7.983403
67.815 8.309675
67.820 8.830453
67.825 9.126786
67.830 9.666394
67.835 9.672456
67.840 9.921612
67.845 9.805653
67.850 9.457156
67.855 9.269947
67.860 9.491168
67.865 9.41436
67.870 9.596783
67.875 9.545158
67.880 9.37476
67.885 9.722872
67.890 9.896175
67.895 9.755188
67.900 9.459451
67.905 9.624538
67.910 9.544815
67.915 9.244984
67.920 8.965958
67.925 8.854272
67.930 8.910596
67.935 8.787378
67.940 8.716125
67.945 9.075184
67.950 9.27589
67.955 9.433367
67.960 9.41415
67.965 9.547368
67.970 10.049092
67.975 10.384955
67.980 10.280948
67.985 10.112519
67.990 10.24439
67.995 10.104959
68.000 10.19742
68.005 9.741587
68.010 9.361135
68.015 9.548971
68.020 9.809978
68.025 9.92853
68.030 9.756119
68.035 9.416821
68.040 9.094249
68.045 9.031341
68.050 8.86872
68.055 8.96812
68.060 8.913636
68.065 9.170536
68.070 9.354504
68.075 10.184277
68.080 10.306515
68.085 10.304928
68.090 10.191978
68.095 10.215239
68.100 10.17674
68.105 10.060567
68.110 9.643797
68.115 9.756206
68.120 9.74381
68.125 9.292254
68.130 9.001981
68.135 8.989006
68.140 8.687086
68.145 8.470973
68.150 8.03116
68.155 8.063329
68.160 8.318944
68.165 8.800341
68.170 8.946371
68.175 9.075727
68.180 9.07424
68.185 9.236736
68.190 8.989277
68.195 8.685478
68.200 8.037879
68.205 7.874762
68.210 7.718945
68.215 7.817203
68.220 7.798881
68.225 7.617814
68.230 7.847869
68.235 8.153192
68.240 8.407013
68.245 8.330044
68.250 8.083351
68.255 8.096936
68.260 8.639318
68.265 9.033288
68.270 9.325043
68.275 9.212345
68.280 9.3787
68.285 9.49987
68.290 9.068925
68.295 8.384306
68.300 7.883609
68.305 7.814529
68.310 8.119658
68.315 8.104499
68.320 7.775845
68.325 8.004959
68.330 8.036048
68.335 7.927256
68.340 7.747942
68.345 7.793692
68.350 8.024679
68.355 8.432405
68.360 8.850742
68.365 9.036122
68.370 9.000734
68.375 8.932999
68.380 8.498907
68.385 8.219903
68.390 8.397758
68.395 8.371295
68.400 8.563375
68.405 8.40787
68.410 8.510143
68.415 8.390012
68.420 8.24842
68.425 7.871903
68.430 7.679197
68.435 7.518745
68.440 7.574076
68.445 7.619527
68.450 8.109596
68.455 8.392467
68.460 8.641584
68.465 8.542539
68.470 8.612499
68.475 8.451631
68.480 8.071006
68.485 8.17793
68.490 7.98982
68.495 7.789905
68.500 7.825018
68.505 7.746536
68.510 7.839878
68.515 7.575072
68.520 7.056409
68.525 7.262461
68.530 7.400982
68.535 7.765743
68.540 7.977853
68.545 8.397594
68.550 8.343225
68.555 8.832157
68.560 9.317833
68.565 9.132122
68.570 9.066748
68.575 8.949258
68.580 9.038996
68.585 9.42191
68.590 9.03464
68.595 9.180482
68.600 9.446843
68.605 9.369901
68.610 9.415195
68.615 9.289071
68.620 9.370322
68.625 9.559198
68.630 9.278222
68.635 8.868481
68.640 8.721475
68.645 8.434986
68.650 8.168617
68.655 7.909602
68.660 7.364398
68.665 7.386151
68.670 7.67058
68.675 7.941793
68.680 8.333113
68.685 8.39804
68.690 8.685295
68.695 8.961648
68.700 8.71571
68.705 8.467337
68.710 8.013256
68.715 7.911184
68.720 7.919552
68.725 7.368913
68.730 7.383235
68.735 7.453711
68.740 7.582204
68.745 7.665271
68.750 7.508149
68.755 7.696177
68.760 7.6409
68.765 7.6823
68.770 7.65143
68.775 7.555819
68.780 7.530062
68.785 7.783072
68.790 7.774587
68.795 7.874743
68.800 7.630935
68.805 7.752699
68.810 8.026859
68.815 7.94779
68.820 7.532871
68.825 7.277208
68.830 7.430925
68.835 7.48526
68.840 7.232372
68.845 7.171724
68.850 7.558218
68.855 8.212332
68.860 8.506432
68.865 8.847926
68.870 9.150317
68.875 9.509048
68.880 9.362764
68.885 9.200535
68.890 8.906885
68.895 8.591754
68.900 8.527951
68.905 8.404566
68.910 8.036421
68.915 7.977427
68.920 7.748572
68.925 7.908546
68.930 8.345138
68.935 8.492977
68.940 8.549926
68.945 8.521141
68.950 8.633261
68.955 8.723874
68.960 8.573712
68.965 8.280044
68.970 8.212131
68.975 8.394144
68.980 8.711048
68.985 8.512322
68.990 8.456113
68.995 8.182784
69.000 8.260522
69.005 7.980397
69.010 7.93618
69.015 7.966316
69.020 8.374816
69.025 8.539021
69.030 8.756163
69.035 9.147543
69.040 9.616451
69.045 9.788304
69.050 9.594879
69.055 9.428577
69.060 9.856752
69.065 10.003455
69.070 9.800077
69.075 9.934941
69.080 10.375243
69.085 10.680496
69.090 10.692443
69.095 10.576684
69.100 11.097196
69.105 11.091741
69.110 10.63172
69.115 10.202695
69.120 10.17943
69.125 10.150689
69.130 9.816051
69.135 9.379249
69.140 9.042769
69.145 8.825683
69.150 8.465243
69.155 8.292319
69.160 8.171408
69.165 7.909921
69.170 7.919448
69.175 7.952878
69.180 7.993697
69.185 8.241598
69.190 8.072134
69.195 8.052073
69.200 8.061471
69.205 7.875259
69.210 7.95892
69.215 8.173646
69.220 7.926862
69.225 8.270716
69.230 8.588322
69.235 8.504025
69.240 9.151716
69.245 9.04335
69.250 8.887757
69.255 9.015821
69.260 9.18341
69.265 8.80496
69.270 8.638282
69.275 7.888813
69.280 7.94165
69.285 7.872818
69.290 7.517328
69.295 7.296641
69.300 7.516835
69.305 7.671039
69.310 7.943072
69.315 7.81587
69.320 7.611005
69.325 7.418128
69.330 7.342582
69.335 7.174113
69.340 6.957693
69.345 6.944698
69.350 7.39044
69.355 7.645017
69.360 8.195705
69.365 8.622584
69.370 8.942552
69.375 8.902148
69.380 8.761343
69.385 8.905577
69.390 9.423223
69.395 9.067488
69.400 8.867028
69.405 8.623901
69.410 8.643556
69.415 8.986336
69.420 8.599689
69.425 8.430163
69.430 8.374433
69.435 8.241697
69.440 8.769635
69.445 8.763623
69.450 8.507784
69.455 8.258542
69.460 8.291784
69.465 8.270741
69.470 8.031424
69.475 7.764885
69.480 7.862312
69.485 8.120729
69.490 8.056636
69.495 7.830167
69.500 7.883501
69.505 8.273567
69.510 8.491399
69.515 8.582893
69.520 8.05484
69.525 8.072181
69.530 8.141166
69.535 8.052403
69.540 7.78445
69.545 7.424718
69.550 7.580295
69.555 7.639769
69.560 7.769088
69.565 8.13394
69.570 8.153251
69.575 8.669988
69.580 8.864421
69.585 8.715376
69.590 9.062132
69.595 8.856516
69.600 8.550735
69.605 8.611445
69.610 7.877553
69.615 7.595283
69.620 7.520254
69.625 7.403031
69.630 7.696325
69.635 7.688123
69.640 8.112337
69.645 8.280785
69.650 8.500209
69.655 8.867431
69.660 8.880661
69.665 8.934232
69.670 8.924951
69.675 9.1788
69.680 9.420753
69.685 9.218756
69.690 9.180088
69.695 9.356801
69.700 9.32195
69.705 9.333365
69.710 8.958868
69.715 8.963849
69.720 9.150082
69.725 9.33855
69.730 8.717575
69.735 8.482618
69.740 8.457261
69.745 8.553945
69.750 8.547437
69.755 8.343663
69.760 8.244226
69.765 8.544886
69.770 8.713427
69.775 8.470899
69.780 8.253923
69.785 8.34587
69.790 8.272833
69.795 7.892468
69.800 7.870181
69.805 7.483849
69.810 7.439284
69.815 7.532035
69.820 7.238544
69.825 7.046027
69.830 7.225138
69.835 7.549436
69.840 7.53226
69.845 7.658859
69.850 7.651122
69.855 7.853782
69.860 8.022817
69.865 7.90415
69.870 7.667074
69.875 7.77315
69.880 7.775919
69.885 7.6136
69.890 7.489598
69.895 7.888189
69.900 8.521688
69.905 8.637323
69.910 8.724779
69.915 8.312882
69.920 8.266827
69.925 8.433434
69.930 8.165622
69.935 7.876224
69.940 8.03253
69.945 7.854506
69.950 8.318602
69.955 8.809261
69.960 8.918333
69.965 8.974519
69.970 9.105875
69.975 9.179716
69.980 9.279461
69.985 9.094991
69.990 8.718175
69.995 8.952084
70.000 8.945929
70.005 8.916528
70.010 8.796019
70.015 8.92797
70.020 9.378699
70.025 9.217829
70.030 9.025326
70.035 8.935036
70.040 9.059723
70.045 8.783712
70.050 8.508096
70.055 8.377503
70.060 8.657808
70.065 8.858829
70.070 8.710497
70.075 8.85001
70.080 9.177013
70.085 8.802344
70.090 8.43364
70.095 8.076358
70.100 7.889853
70.105 8.232421
70.110 8.480852
70.115 8.863458
70.120 9.04998
70.125 8.97931
70.130 8.956884
70.135 9.072292
70.140 8.947549
70.145 8.914565
70.150 8.848591
70.155 9.092237
70.160 9.287922
70.165 9.01167
70.170 8.526536
70.175 8.084969
70.180 7.796095
70.185 7.755808
70.190 7.838043
70.195 7.971531
70.200 8.533424
70.205 8.323082
70.210 7.927801
70.215 7.958211
70.220 8.130355
70.225 7.94865
70.230 7.656107
70.235 7.556859
70.240 7.893364
70.245 8.130664
70.250 8.292224
70.255 8.227816
70.260 8.496856
70.265 8.914968
70.270 9.005696
70.275 9.434123
70.280 9.48634
70.285 9.666462
70.290 9.705601
70.295 9.485791
70.300 9.561603
70.305 9.187615
70.310 9.28477
70.315 9.392095
70.320 9.108903
70.325 8.747228
70.330 8.795137
70.335 8.691325
70.340 8.892365
70.345 8.66601
70.350 8.757677
70.355 9.280436
70.360 9.657626
70.365 9.684444
70.370 9.838156
70.375 9.975511
70.380 10.456656
70.385 10.258414
70.390 9.648348
70.395 9.944657
70.400 10.084519
70.405 10.218132
70.410 10.118795
70.415 9.767104
70.420 9.893743
70.425 9.907662
70.430 9.838958
70.435 10.012169
70.440 10.205033
70.445 10.443171
70.450 10.657317
70.455 10.437041
70.460 10.623904
70.465 10.302458
70.470 9.779588
70.475 9.520577
70.480 9.372275
70.485 9.418378
70.490 9.656536
70.495 9.464995
70.500 9.472395
70.505 10.11489
70.510 10.203888
70.515 9.913132
70.520 9.526114
70.525 9.59786
70.530 9.592599
70.535 9.712519
70.540 9.72751
70.545 9.839259
70.550 10.170075
70.555 10.813804
70.560 10.834642
70.565 11.079194
70.570 10.686823
70.575 9.853814
70.580 9.656981
70.585 9.35253
70.590 8.381309
70.595 8.077283
70.600 7.912202
70.605 8.167725
70.610 8.449924
70.615 8.367269
70.620 8.054333
70.625 8.165702
70.630 8.394977
70.635 8.261175
70.640 7.91137
70.645 8.033647
70.650 8.612768
70.655 9.208997
70.660 9.817575
70.665 9.39476
70.670 9.545822
70.675 9.99126
70.680 9.742911
70.685 9.613292
70.690 9.587878
70.695 9.235672
70.700 9.256755
70.705 9.200277
70.710 8.539282
70.715 8.142802
70.720 7.66231
70.725 7.270182
70.730 6.965093
70.735 7.061504
70.740 6.889985
70.745 7.03149
70.750 7.284002
70.755 7.388519
70.760 7.817357
70.765 8.19283
70.770 8.229879
70.775 8.403292
70.780 8.7666
70.785 8.477767
70.790 8.502761
70.795 8.031142
70.800 7.689285
70.805 7.723293
70.810 7.945348
70.815 7.858123
70.820 7.640347
70.825 7.142829
70.830 6.946933
70.835 6.818966
70.840 7.212686
70.845 7.125981
70.850 6.860244
70.855 7.171659
70.860 7.785577
70.865 8.254209
70.870 8.105758
70.875 7.664318
70.880 7.58502
70.885 8.091912
70.890 8.10759
70.895 7.819474
70.900 7.768592
70.905 7.980557
70.910 8.189806
70.915 7.956291
70.920 7.738779
70.925 7.98268
70.930 8.169773
70.935 8.520521
70.940 8.412049
70.945 8.369696
70.950 8.581204
70.955 8.536121
70.960 8.441067
70.965 8.314736
70.970 8.048346
70.975 8.255319
70.980 8.368123
70.985 7.964515
70.990 7.577102
70.995 7.636077
71.000 7.635074
71.005 7.584544
71.010 7.131284
71.015 6.853048
71.020 7.436224
71.025 8.011763
71.030 8.022016
71.035 7.982659
71.040 7.658327
71.045 7.879118
71.050 8.316977
71.055 7.885298
71.060 7.863648
71.065 7.810822
71.070 7.925453
71.075 8.609472
71.080 8.675491
71.085 8.688215
71.090 8.875154
71.095 8.615699
71.100 8.817391
71.105 8.708833
71.110 8.484172
71.115 8.45944
71.120 8.42521
71.125 8.160848
71.130 8.300999
71.135 7.92627
71.140 7.652779
71.145 7.439771
71.150 7.309291
71.155 7.194585
71.160 7.646274
71.165 7.492607
71.170 7.736852
71.175 8.143371
71.180 8.159855
71.185 8.311487
71.190 8.088944
71.195 8.059306
71.200 8.04732
71.205 8.034672
71.210 7.996265
71.215 8.104132
71.220 8.128078
71.225 8.198994
71.230 8.511326
71.235 8.866421
71.240 8.963775
71.245 8.800972
71.250 8.730916
71.255 8.99789
71.260 8.824242
71.265 8.619592
71.270 8.356572
71.275 8.58205
71.280 8.776595
71.285 8.707183
71.290 8.46264
71.295 8.42869
71.300 8.349621
71.305 8.551502
71.310 8.312101
71.315 8.106625
71.320 7.752824
71.325 7.480685
71.330 7.449807
71.335 7.529257
71.340 7.349988
71.345 7.35756
71.350 7.475637
71.355 7.623188
71.360 7.614276
71.365 7.816018
71.370 7.790557
71.375 7.751638
71.380 7.618643
71.385 7.40032
71.390 7.447996
71.395 7.629472
71.400 7.756952
71.405 7.6911
71.410 7.924741
71.415 8.077866
71.420 8.441815
71.425 8.84719
71.430 8.605974
71.435 8.307989
71.440 8.067364
71.445 7.927553
71.450 8.05962
71.455 8.309317
71.460 8.153822
71.465 8.595488
71.470 8.816561
71.475 8.531602
71.480 8.490857
71.485 7.951417
71.490 7.454676
71.495 7.237837
71.500 7.298751
71.505 7.076606
71.510 7.21509
71.515 7.64859
71.520 8.319839
71.525 8.46943
71.530 8.558863
71.535 8.554115
71.540 9.021848
71.545 8.914319
71.550 8.456897
71.555 8.198515
71.560 8.049003
71.565 8.002687
71.570 7.65417
71.575 7.643391
71.580 7.361423
71.585 7.359154
71.590 7.208646
71.595 7.123492
71.600 7.43437
71.605 7.533441
71.610 7.773971
71.615 8.086034
71.620 8.293681
71.625 8.726201
71.630 9.022632
71.635 8.510581
71.640 8.499109
71.645 8.317713
71.650 8.077611
71.655 8.070449
71.660 7.615582
71.665 7.376182
71.670 7.581321
71.675 7.959109
71.680 8.259656
71.685 8.325891
71.690 8.091272
71.695 8.168115
71.700 8.310831
71.705 8.121994
71.710 7.936611
71.715 7.761252
71.720 8.083491
71.725 8.387789
71.730 8.732526
71.735 9.220602
71.740 9.013434
71.745 8.75315
71.750 8.843913
71.755 8.49711
71.760 8.314375
71.765 8.056796
71.770 7.622228
71.775 7.636648
71.780 7.549197
71.785 7.177488
71.790 6.998893
71.795 6.733132
71.800 6.369012
71.805 6.534379
71.810 6.822523
71.815 7.243976
71.820 7.575302
71.825 7.739256
71.830 8.187256
71.835 8.566748
71.840 8.717385
71.845 8.589891
71.850 8.373634
71.855 8.39458
71.860 8.517207
71.865 8.303011
71.870 7.963459
71.875 8.067497
71.880 8.087372
71.885 7.977565
71.890 7.891813
71.895 7.453233
71.900 7.34459
71.905 7.245285
71.910 6.869129
71.915 6.819965
71.920 6.672389
71.925 6.557164
71.930 6.783664
71.935 7.12669
71.940 7.288031
71.945 7.581985
71.950 7.577342
71.955 7.552858
71.960 7.73304
71.965 7.638717
71.970 7.350135
71.975 6.901322
71.980 7.155777
71.985 7.203378
71.990 7.3844
71.995 7.454774
72.000 7.397469
72.005 7.417067
72.010 7.524124
72.015 7.505694
72.020 7.518291
72.025 7.540544
72.030 7.527435
72.035 7.65318
72.040 7.615225
72.045 7.534716
72.050 7.426695
72.055 7.622031
72.060 7.748416
72.065 7.397151
72.070 7.197788
72.075 7.373081
72.080 7.603478
72.085 7.674622
72.090 7.581297
72.095 7.535756
72.100 7.818188
72.105 7.748452
72.110 7.635525
72.115 7.639187
72.120 7.656433
72.125 7.688182
72.130 7.941391
72.135 7.958623
72.140 8.211838
72.145 8.105362
72.150 8.051433
72.155 7.993868
72.160 7.968712
72.165 7.323241
72.170 7.355752
72.175 7.359371
72.180 7.958383
72.185 7.935957
72.190 8.186589
72.195 9.003326
72.200 9.579014
72.205 9.763753
72.210 9.873425
72.215 9.515349
72.220 9.552096
72.225 9.39211
72.230 8.969026
72.235 8.597948
72.240 8.489303
72.245 8.256681
72.250 8.268858
72.255 8.101293
72.260 7.983512
72.265 7.953088
72.270 8.078133
72.275 7.884667
72.280 8.135748
72.285 8.5502
72.290 8.558694
72.295 8.610336
72.300 8.640568
72.305 8.893647
72.310 8.940673
72.315 8.677868
72.320 8.569195
72.325 8.212633
72.330 8.083201
72.335 8.366551
72.340 8.570879
72.345 8.292543
72.350 8.111874
72.355 7.850781
72.360 7.973826
72.365 8.051193
72.370 8.106539
72.375 8.183232
72.380 8.626708
72.385 8.906268
72.390 9.162825
72.395 8.869215
72.400 8.609971
72.405 8.298316
72.410 8.255745
72.415 8.338406
72.420 8.264277
72.425 8.697107
72.430 8.92205
72.435 8.650927
72.440 8.785317
72.445 8.59446
72.450 8.538066
72.455 8.076145
72.460 7.96618
72.465 8.040687
72.470 8.31664
72.475 8.050549
72.480 8.262792
72.485 8.323337
72.490 8.600924
72.495 8.5717
72.500 8.099851
72.505 7.734417
72.510 7.651534
72.515 7.722688
72.520 8.300186
72.525 8.226005
72.530 8.359801
72.535 8.910427
72.540 8.938124
72.545 9.016024
72.550 8.391518
72.555 7.816336
72.560 7.844712
72.565 7.856688
72.570 7.856675
72.575 8.208276
72.580 8.306019
72.585 8.737654
72.590 8.795985
72.595 8.820347
72.600 8.838583
72.605 8.648288
72.610 8.184129
72.615 8.1153
72.620 7.771368
72.625 7.849728
72.630 7.856138
72.635 7.918067
72.640 8.207914
72.645 8.544534
72.650 8.34042
72.655 8.253402
72.660 8.352401
72.665 8.203616
72.670 8.387493
72.675 8.205581
72.680 8.282063
72.685 8.445503
72.690 8.476358
72.695 8.31988
72.700 8.304019
72.705 8.23936
72.710 7.857553
72.715 7.627375
72.720 7.45891
72.725 7.516845
72.730 7.904745
72.735 7.715659
72.740 7.757579
72.745 8.086898
72.750 8.102552
72.755 8.468077
72.760 8.510555
72.765 8.828272
72.770 9.110218
72.775 9.068329
72.780 8.758261
72.785 8.418718
72.790 8.199718
72.795 7.66297
72.800 6.967772
72.805 6.490517
72.810 6.498309
72.815 7.15007
72.820 7.534151
72.825 7.620908
72.830 7.927325
72.835 8.237091
72.840 8.405371
72.845 8.255304
72.850 8.231755
72.855 8.2753
72.860 8.384502
72.865 8.160509
72.870 8.428972
72.875 8.798764
72.880 9.090137
72.885 8.77676
72.890 8.465635
72.895 8.414274
72.900 8.582577
72.905 8.394854
72.910 8.048569
72.915 8.006892
72.920 7.984484
72.925 8.295358
72.930 8.507131
72.935 8.228822
72.940 8.226152
72.945 8.23789
72.950 7.916461
72.955 7.758471
72.960 7.50159
72.965 7.328624
72.970 7.487161
72.975 7.662312
72.980 7.66179
72.985 7.704398
72.990 7.764039
72.995 7.991459
73.000 7.941165
