!@!!GADDS PLOTSO FILE: Chi integration type
!@!!Title/SampleName: map-159
!@!!Comment: ?
!@!!User: Bruker Instrument Administrator
!@!!Site: University of Illinois Chicago
!@!!Frame: map-159_01_000.gfrm
!@!!Wavelengths    1.54184   1.54056   1.54439
!@!!Frame angles: 2Theta: 63.000 Omega: 50.000 Phi: 0.000 Chi: 90.000
!@!!Integration range: 2Theta: 53.000 to 73.000  Gamma: -105.000 to -75.000
!@!!Integration method: bin normalized
!@!N
!@!SS
!@!M
!@!L 0.0 0.0 0.0 0.0
!@!XDegrees
!@!YCounts
53.000 7.55483
53.005 7.189745
53.010 7.009867
53.015 6.939617
53.020 7.059936
53.025 6.967041
53.030 6.667288
53.035 6.941626
53.040 7.02321
53.045 7.004958
53.050 7.218519
53.055 7.080729
53.060 6.905162
53.065 6.942101
53.070 7.095717
53.075 7.44086
53.080 7.350227
53.085 7.039181
53.090 7.456366
53.095 7.485775
53.100 7.328833
53.105 7.192374
53.110 7.007564
53.115 7.293562
53.120 7.115487
53.125 6.836086
53.130 6.844865
53.135 6.891384
53.140 6.968521
53.145 6.70886
53.150 6.594841
53.155 6.69418
53.160 6.509036
53.165 6.611044
53.170 6.874116
53.175 7.271005
53.180 7.706356
53.185 7.616507
53.190 7.717972
53.195 7.905868
53.200 7.880486
53.205 7.394979
53.210 7.152324
53.215 7.024996
53.220 6.924093
53.225 7.251787
53.230 7.716054
53.235 7.482259
53.240 7.4426
53.245 7.381779
53.250 7.331011
53.255 7.66362
53.260 7.367593
53.265 6.958827
53.270 7.261521
53.275 7.446525
53.280 7.252481
53.285 7.044072
53.290 6.695722
53.295 7.004563
53.300 7.260327
53.305 6.978953
53.310 6.786599
53.315 6.906242
53.320 7.161507
53.325 7.116874
53.330 7.041059
53.335 7.126031
53.340 7.546541
53.345 7.618083
53.350 7.61546
53.355 7.784237
53.360 7.818797
53.365 7.424072
53.370 7.424457
53.375 6.989211
53.380 6.934011
53.385 6.938945
53.390 6.8172
53.395 6.838242
53.400 6.717943
53.405 6.765912
53.410 7.250222
53.415 7.356839
53.420 7.19115
53.425 7.272885
53.430 7.466847
53.435 7.798608
53.440 7.827484
53.445 7.554604
53.450 7.189967
53.455 6.946311
53.460 6.637818
53.465 6.591031
53.470 6.250616
53.475 5.995368
53.480 6.285876
53.485 6.682943
53.490 7.034802
53.495 7.215616
53.500 7.395196
53.505 7.877112
53.510 8.240343
53.515 8.182474
53.520 8.478021
53.525 8.80004
53.530 8.758576
53.535 8.608364
53.540 8.167457
53.545 7.886003
53.550 7.812308
53.555 7.591953
53.560 6.970792
53.565 6.83982
53.570 7.148983
53.575 7.274917
53.580 7.605947
53.585 7.378973
53.590 7.506558
53.595 7.931856
53.600 7.831876
53.605 7.832719
53.610 7.917351
53.615 8.115063
53.620 8.503819
53.625 8.872746
53.630 8.996329
53.635 9.132934
53.640 8.902318
53.645 8.927233
53.650 8.624452
53.655 8.274745
53.660 8.020669
53.665 7.905627
53.670 8.001956
53.675 7.936076
53.680 7.865546
53.685 8.15607
53.690 8.331032
53.695 7.919257
53.700 7.730217
53.705 7.546744
53.710 7.630584
53.715 7.753673
53.720 7.313858
53.725 7.306861
53.730 7.846817
53.735 8.287466
53.740 8.623034
53.745 8.5514
53.750 8.837852
53.755 8.609673
53.760 8.163782
53.765 7.968185
53.770 8.098722
53.775 8.105928
53.780 8.197765
53.785 7.991749
53.790 8.374542
53.795 8.657771
53.800 8.408102
53.805 8.429893
53.810 8.165268
53.815 7.927794
53.820 7.991367
53.825 8.144781
53.830 7.840017
53.835 7.77143
53.840 7.427225
53.845 7.467694
53.850 7.563607
53.855 7.452359
53.860 7.160084
53.865 7.340542
53.870 7.14145
53.875 7.309306
53.880 7.534518
53.885 7.741506
53.890 7.786066
53.895 7.978015
53.900 8.002533
53.905 8.360943
53.910 8.203477
53.915 7.816007
53.920 7.850003
53.925 7.732029
53.930 7.937396
53.935 7.873202
53.940 7.571176
53.945 7.522248
53.950 7.561708
53.955 7.892673
53.960 7.715371
53.965 7.521315
53.970 7.667301
53.975 7.847571
53.980 7.824034
53.985 7.74254
53.990 7.21529
53.995 7.187675
54.000 7.365083
54.005 7.001417
54.010 6.939659
54.015 7.064711
54.020 7.267639
54.025 7.720963
54.030 7.922055
54.035 8.114171
54.040 8.342928
54.045 8.395426
54.050 8.005384
54.055 7.709808
54.060 7.628776
54.065 7.65104
54.070 7.62732
54.075 7.62226
54.080 8.107985
54.085 8.765363
54.090 9.215452
54.095 8.973085
54.100 8.922521
54.105 8.566412
54.110 8.437047
54.115 8.044069
54.120 7.826811
54.125 7.573501
54.130 7.542901
54.135 7.398407
54.140 7.682879
54.145 7.976652
54.150 7.793513
54.155 7.325949
54.160 7.172571
54.165 6.993412
54.170 6.884773
54.175 6.599607
54.180 6.361793
54.185 6.167876
54.190 6.990678
54.195 7.33253
54.200 7.620676
54.205 7.702568
54.210 7.583922
54.215 7.761987
54.220 8.009923
54.225 7.578263
54.230 7.751266
54.235 7.662992
54.240 7.880793
54.245 8.179828
54.250 8.219872
54.255 8.258268
54.260 8.268883
54.265 8.057528
54.270 8.101606
54.275 8.201066
54.280 8.362844
54.285 8.401845
54.290 8.612794
54.295 9.010948
54.300 9.383135
54.305 9.797462
54.310 10.014113
54.315 9.956535
54.320 9.928325
54.325 9.536385
54.330 8.972952
54.335 8.803942
54.340 8.277683
54.345 7.747778
54.350 7.491278
54.355 7.394724
54.360 7.267156
54.365 7.100339
54.370 7.261223
54.375 7.455206
54.380 7.643771
54.385 7.594167
54.390 7.746464
54.395 7.707745
54.400 7.58497
54.405 7.1547
54.410 7.091085
54.415 7.162361
54.420 7.193932
54.425 7.414728
54.430 7.418003
54.435 7.734141
54.440 7.858495
54.445 7.477271
54.450 7.37602
54.455 7.172253
54.460 6.977125
54.465 7.232117
54.470 7.260105
54.475 7.692878
54.480 8.574983
54.485 8.677294
54.490 9.068734
54.495 9.303008
54.500 9.190405
54.505 8.774629
54.510 8.191517
54.515 7.766098
54.520 7.667481
54.525 7.545725
54.530 7.446731
54.535 7.024681
54.540 7.361603
54.545 7.658698
54.550 7.680536
54.555 7.6624
54.560 7.731263
54.565 7.736656
54.570 7.969509
54.575 7.814575
54.580 8.167885
54.585 8.618324
54.590 8.653326
54.595 8.270379
54.600 8.438136
54.605 8.418352
54.610 8.35684
54.615 7.712636
54.620 7.151779
54.625 6.981713
54.630 7.577776
54.635 7.61201
54.640 7.511688
54.645 7.601105
54.650 7.808044
54.655 7.948527
54.660 8.260636
54.665 8.019469
54.670 8.124859
54.675 8.124547
54.680 8.477687
54.685 8.886569
54.690 8.81471
54.695 8.578245
54.700 8.713662
54.705 8.841086
54.710 8.835958
54.715 8.63776
54.720 8.151217
54.725 8.191788
54.730 8.457708
54.735 8.265513
54.740 8.671251
54.745 8.65292
54.750 8.785295
54.755 9.548591
54.760 9.512305
54.765 9.119113
54.770 8.925529
54.775 8.30575
54.780 8.108727
54.785 7.747793
54.790 7.342334
54.795 6.794545
54.800 6.966405
54.805 7.252827
54.810 7.598966
54.815 8.03905
54.820 8.076468
54.825 8.31141
54.830 8.644045
54.835 8.622218
54.840 8.696267
54.845 8.494102
54.850 8.171974
54.855 8.557052
54.860 8.694894
54.865 8.752725
54.870 8.624229
54.875 8.700613
54.880 9.256884
54.885 9.22304
54.890 8.661552
54.895 8.508887
54.900 8.115788
54.905 8.042316
54.910 8.109404
54.915 7.709793
54.920 7.702484
54.925 7.871219
54.930 8.074384
54.935 8.423856
54.940 8.589379
54.945 8.762006
54.950 8.961148
54.955 9.149334
54.960 9.497458
54.965 9.642004
54.970 9.855356
54.975 9.411242
54.980 9.403288
54.985 9.521056
54.990 9.81677
54.995 9.950188
55.000 9.802917
55.005 9.943522
55.010 10.036002
55.015 9.895573
55.020 9.691148
55.025 9.202208
55.030 8.795449
55.035 8.597538
55.040 8.409445
55.045 8.251645
55.050 8.365924
55.055 8.359302
55.060 8.694061
55.065 9.012537
55.070 9.121589
55.075 9.031896
55.080 9.198182
55.085 8.817381
55.090 8.779464
55.095 8.538944
55.100 8.453207
55.105 8.545558
55.110 8.465854
55.115 8.594822
55.120 9.133446
55.125 9.257397
55.130 9.45794
55.135 9.638288
55.140 9.789904
55.145 9.857158
55.150 9.771576
55.155 9.049597
55.160 9.012309
55.165 8.493287
55.170 7.928941
55.175 7.859579
55.180 7.798512
55.185 7.714578
55.190 8.019448
55.195 7.843606
55.200 8.182834
55.205 8.654897
55.210 8.855054
55.215 8.639127
55.220 8.480605
55.225 8.317007
55.230 8.254923
55.235 8.149154
55.240 8.313302
55.245 8.467707
55.250 8.630834
55.255 8.392816
55.260 8.444564
55.265 8.84985
55.270 8.658111
55.275 8.471911
55.280 8.425485
55.285 8.424718
55.290 8.718874
55.295 9.104152
55.300 8.759089
55.305 8.398642
55.310 8.121386
55.315 7.951502
55.320 7.869317
55.325 7.606061
55.330 6.90059
55.335 6.791049
55.340 7.024791
55.345 7.052534
55.350 7.27012
55.355 7.698116
55.360 7.874958
55.365 8.154905
55.370 8.304938
55.375 8.438313
55.380 8.402519
55.385 8.298583
55.390 8.077037
55.395 7.85886
55.400 8.324447
55.405 8.476198
55.410 8.442251
55.415 8.395586
55.420 8.149154
55.425 8.023398
55.430 7.808568
55.435 7.147662
55.440 7.150711
55.445 7.001973
55.450 7.132707
55.455 7.556496
55.460 7.859683
55.465 7.983507
55.470 8.028709
55.475 7.607872
55.480 7.721864
55.485 7.798777
55.490 8.146729
55.495 8.493721
55.500 8.587481
55.505 8.791028
55.510 8.90101
55.515 9.068953
55.520 8.880475
55.525 8.240315
55.530 8.25386
55.535 8.581648
55.540 8.326773
55.545 8.187814
55.550 7.834564
55.555 7.627359
55.560 7.636126
55.565 7.467547
55.570 6.952169
55.575 6.825744
55.580 6.803362
55.585 7.247223
55.590 7.327281
55.595 7.279748
55.600 7.346231
55.605 7.599611
55.610 7.843977
55.615 7.391705
55.620 6.673451
55.625 6.452202
55.630 6.424195
55.635 6.967236
55.640 7.668624
55.645 7.800204
55.650 8.549685
55.655 8.960922
55.660 8.896361
55.665 8.468074
55.670 7.738637
55.675 7.63986
55.680 7.956371
55.685 8.059389
55.690 8.121397
55.695 8.445705
55.700 8.762286
55.705 8.814305
55.710 8.615443
55.715 8.680735
55.720 8.701638
55.725 8.859759
55.730 8.845034
55.735 9.025092
55.740 9.082756
55.745 8.635645
55.750 8.452574
55.755 8.263137
55.760 8.469357
55.765 8.482199
55.770 8.009491
55.775 8.041549
55.780 8.134698
55.785 8.20092
55.790 8.084004
55.795 8.116205
55.800 8.149719
55.805 8.145045
55.810 8.292626
55.815 8.488189
55.820 8.380006
55.825 8.282499
55.830 7.846961
55.835 8.024998
55.840 8.162735
55.845 8.451203
55.850 8.640926
55.855 8.663651
55.860 8.888358
55.865 9.133478
55.870 8.872919
55.875 8.800797
55.880 8.134495
55.885 7.771054
55.890 7.627327
55.895 7.679399
55.900 7.561657
55.905 8.120367
55.910 8.74192
55.915 8.983566
55.920 9.526275
55.925 9.712939
55.930 9.66094
55.935 9.693061
55.940 9.307306
55.945 9.06282
55.950 9.28566
55.955 8.722049
55.960 8.454002
55.965 7.997623
55.970 7.906193
55.975 8.224862
55.980 8.111491
55.985 7.888162
55.990 7.948539
55.995 8.063096
56.000 8.376236
56.005 8.099913
56.010 7.678335
56.015 7.101613
56.020 6.693774
56.025 6.570084
56.030 6.340909
56.035 6.25718
56.040 6.745145
56.045 6.767839
56.050 7.238914
56.055 8.053188
56.060 7.949056
56.065 8.198355
56.070 7.969557
56.075 7.6846
56.080 8.074228
56.085 7.980632
56.090 7.638522
56.095 7.51045
56.100 7.4895
56.105 7.806988
56.110 7.804577
56.115 7.623016
56.120 7.58204
56.125 7.663319
56.130 7.871531
56.135 8.092271
56.140 7.816385
56.145 7.836413
56.150 8.163253
56.155 8.183521
56.160 8.093668
56.165 8.411947
56.170 8.587112
56.175 8.620059
56.180 8.510304
56.185 8.437032
56.190 8.559888
56.195 8.635308
56.200 8.64536
56.205 8.420362
56.210 8.704551
56.215 8.315014
56.220 7.854007
56.225 7.952821
56.230 8.152754
56.235 8.447614
56.240 8.802962
56.245 8.785203
56.250 8.685365
56.255 8.507288
56.260 8.830489
56.265 8.81385
56.270 8.450534
56.275 8.560469
56.280 8.698418
56.285 9.145827
56.290 9.782511
56.295 9.778539
56.300 9.562708
56.305 9.641722
56.310 9.383136
56.315 9.10898
56.320 8.998079
56.325 8.427845
56.330 8.505154
56.335 8.480259
56.340 8.490413
56.345 8.581228
56.350 8.899835
56.355 9.07787
56.360 8.965151
56.365 8.72298
56.370 8.27925
56.375 8.441222
56.380 8.576323
56.385 8.782722
56.390 8.976332
56.395 9.142777
56.400 9.609812
56.405 9.805046
56.410 9.704473
56.415 9.472417
56.420 9.597627
56.425 9.590482
56.430 10.038851
56.435 10.549299
56.440 10.424339
56.445 10.377731
56.450 10.347301
56.455 10.468648
56.460 10.23864
56.465 9.85659
56.470 9.225999
56.475 9.223239
56.480 9.13375
56.485 9.416618
56.490 9.543966
56.495 10.198465
56.500 10.374298
56.505 10.490801
56.510 10.433638
56.515 10.332271
56.520 9.927511
56.525 9.630695
56.530 8.801444
56.535 8.564202
56.540 8.437888
56.545 8.530331
56.550 8.381412
56.555 8.607136
56.560 8.535528
56.565 8.83928
56.570 8.821443
56.575 8.962604
56.580 9.232557
56.585 9.494102
56.590 9.83268
56.595 9.743787
56.600 9.667066
56.605 9.738598
56.610 9.606988
56.615 9.540086
56.620 9.174673
56.625 8.927282
56.630 9.016829
56.635 9.454418
56.640 9.724353
56.645 9.806872
56.650 9.656264
56.655 10.189688
56.660 9.945195
56.665 9.980921
56.670 9.497875
56.675 9.117654
56.680 9.525313
56.685 9.543151
56.690 9.406409
56.695 9.818473
56.700 9.907855
56.705 10.142165
56.710 10.060462
56.715 9.566097
56.720 9.930479
56.725 9.787645
56.730 9.389905
56.735 9.37589
56.740 9.411772
56.745 9.761274
56.750 10.027681
56.755 9.89703
56.760 9.808254
56.765 9.661069
56.770 9.811184
56.775 9.491447
56.780 9.400267
56.785 9.002739
56.790 8.681816
56.795 8.992439
56.800 8.980696
56.805 8.866292
56.810 9.060114
56.815 9.002161
56.820 9.165199
56.825 9.107608
56.830 8.61212
56.835 8.254967
56.840 7.90728
56.845 7.524961
56.850 7.585467
56.855 7.608992
56.860 7.601341
56.865 8.408213
56.870 8.578105
56.875 8.804632
56.880 9.042071
56.885 8.769936
56.890 8.685252
56.895 8.804811
56.900 8.21823
56.905 8.267183
56.910 8.199851
56.915 8.308771
56.920 8.178717
56.925 7.779449
56.930 7.703821
56.935 7.810405
56.940 7.886655
56.945 7.675868
56.950 7.492409
56.955 7.648282
56.960 7.738461
56.965 7.863731
56.970 7.702278
56.975 7.45693
56.980 7.525216
56.985 7.790019
56.990 8.063095
56.995 8.061888
57.000 7.933249
57.005 8.099981
57.010 8.352956
57.015 8.383534
57.020 8.434575
57.025 8.240938
57.030 8.222322
57.035 8.091922
57.040 8.186439
57.045 8.389261
57.050 8.424772
57.055 8.092324
57.060 8.103559
57.065 8.268131
57.070 8.279447
57.075 8.28688
57.080 8.432634
57.085 8.413878
57.090 8.667954
57.095 8.92278
57.100 8.641462
57.105 8.690539
57.110 8.510627
57.115 8.004904
57.120 7.60494
57.125 7.296578
57.130 7.146912
57.135 6.985751
57.140 6.660011
57.145 6.520044
57.150 6.728661
57.155 7.197779
57.160 7.219473
57.165 7.061819
57.170 7.066072
57.175 7.26505
57.180 7.399887
57.185 7.434117
57.190 7.291971
57.195 7.502717
57.200 7.93183
57.205 8.495547
57.210 8.503631
57.215 8.918251
57.220 8.930927
57.225 9.265271
57.230 9.070045
57.235 9.068039
57.240 8.811007
57.245 8.931741
57.250 8.792903
57.255 8.531569
57.260 8.628421
57.265 8.578322
57.270 8.773117
57.275 8.612528
57.280 8.495563
57.285 8.517216
57.290 8.675735
57.295 8.697305
57.300 8.878795
57.305 8.92251
57.310 8.538936
57.315 8.08836
57.320 8.07319
57.325 8.35395
57.330 8.340359
57.335 8.450032
57.340 8.469674
57.345 8.743132
57.350 9.242297
57.355 8.73176
57.360 8.313919
57.365 7.910755
57.370 7.378489
57.375 7.132134
57.380 7.348004
57.385 7.050354
57.390 6.941398
57.395 6.681211
57.400 6.89485
57.405 7.511162
57.410 8.043662
57.415 8.301146
57.420 8.616874
57.425 9.309089
57.430 9.569002
57.435 9.55975
57.440 9.428418
57.445 9.316402
57.450 9.039683
57.455 8.473225
57.460 8.445638
57.465 8.531969
57.470 8.349312
57.475 7.970587
57.480 7.714501
57.485 8.043166
57.490 8.474115
57.495 8.199759
57.500 8.240457
57.505 8.398775
57.510 8.340019
57.515 8.09808
57.520 7.84861
57.525 7.690878
57.530 7.467247
57.535 7.427619
57.540 7.249881
57.545 7.627027
57.550 8.019808
57.555 8.897243
57.560 9.523102
57.565 10.090745
57.570 10.168819
57.575 10.410898
57.580 10.592322
57.585 10.327605
57.590 9.282592
57.595 9.245633
57.600 9.198277
57.605 8.887404
57.610 8.584834
57.615 8.55639
57.620 8.429898
57.625 8.619648
57.630 8.488034
57.635 8.328657
57.640 8.367759
57.645 8.613948
57.650 8.830696
57.655 9.122878
57.660 8.888384
57.665 8.398264
57.670 8.37075
57.675 8.22994
57.680 7.767384
57.685 7.269387
57.690 6.905532
57.695 7.237827
57.700 7.515975
57.705 7.851532
57.710 7.974299
57.715 8.003062
57.720 8.361488
57.725 8.836824
57.730 8.700247
57.735 8.732846
57.740 8.557446
57.745 8.611908
57.750 8.63951
57.755 8.468665
57.760 8.194282
57.765 8.240734
57.770 8.261487
57.775 8.235229
57.780 8.180434
57.785 8.143692
57.790 8.159731
57.795 8.244403
57.800 8.354664
57.805 8.223428
57.810 8.201229
57.815 8.654887
57.820 8.885593
57.825 8.865411
57.830 8.870175
57.835 8.710866
57.840 9.144315
57.845 9.093449
57.850 8.661836
57.855 8.345163
57.860 8.311159
57.865 7.983864
57.870 7.765769
57.875 7.358657
57.880 7.238402
57.885 7.415781
57.890 7.22583
57.895 7.219746
57.900 7.445358
57.905 7.326248
57.910 7.222416
57.915 7.204089
57.920 7.343183
57.925 7.615536
57.930 7.470856
57.935 7.71851
57.940 7.800672
57.945 7.901894
57.950 8.124005
57.955 7.795666
57.960 7.878086
57.965 8.190845
57.970 7.929274
57.975 7.927405
57.980 8.027681
57.985 7.988266
57.990 8.184703
57.995 8.101245
58.000 7.862493
58.005 7.675931
58.010 8.06508
58.015 8.212956
58.020 8.429186
58.025 8.706055
58.030 8.605175
58.035 8.87902
58.040 9.288157
58.045 9.123751
58.050 8.946145
58.055 8.93996
58.060 8.803813
58.065 9.239228
58.070 9.076515
58.075 8.749289
58.080 8.753634
58.085 8.439206
58.090 7.873929
58.095 7.603246
58.100 7.546514
58.105 7.9156
58.110 8.323798
58.115 8.388313
58.120 8.994874
58.125 9.83837
58.130 10.119098
58.135 10.460944
58.140 10.182565
58.145 9.786326
58.150 9.868811
58.155 9.803701
58.160 9.498747
58.165 9.2572
58.170 8.866329
58.175 9.132813
58.180 9.200973
58.185 9.320383
58.190 8.983574
58.195 8.56625
58.200 8.598433
58.205 8.704642
58.210 8.715226
58.215 8.785425
58.220 8.527726
58.225 8.207613
58.230 8.047353
58.235 7.578226
58.240 7.063963
58.245 6.990403
58.250 6.849364
58.255 6.885258
58.260 7.361344
58.265 8.174166
58.270 8.817243
58.275 8.957415
58.280 8.982884
58.285 8.944779
58.290 8.881801
58.295 8.763715
58.300 8.173886
58.305 7.988697
58.310 8.210778
58.315 8.103447
58.320 8.351197
58.325 8.592271
58.330 8.755507
58.335 9.029427
58.340 9.028802
58.345 9.086986
58.350 9.261909
58.355 9.373637
58.360 9.572604
58.365 9.535032
58.370 9.543918
58.375 9.509299
58.380 8.985937
58.385 8.395388
58.390 8.112945
58.395 8.277503
58.400 8.114302
58.405 7.971882
58.410 8.023155
58.415 8.331096
58.420 8.696119
58.425 8.987884
58.430 9.071179
58.435 9.242947
58.440 9.309829
58.445 9.409189
58.450 9.974616
58.455 10.022856
58.460 9.942271
58.465 9.697977
58.470 9.804691
58.475 9.76289
58.480 9.613914
58.485 9.649461
58.490 9.828636
58.495 9.749259
58.500 10.002805
58.505 10.152325
58.510 9.995232
58.515 9.719558
58.520 9.425641
58.525 9.524087
58.530 9.703452
58.535 9.630795
58.540 9.788165
58.545 10.395638
58.550 10.4734
58.555 10.241908
58.560 9.996175
58.565 9.7209
58.570 9.583029
58.575 9.26336
58.580 9.218449
58.585 9.418435
58.590 9.31873
58.595 8.779103
58.600 8.765625
58.605 8.659968
58.610 8.764977
58.615 9.036434
58.620 9.331133
58.625 9.959816
58.630 10.521017
58.635 10.438528
58.640 10.30474
58.645 10.365156
58.650 10.099633
58.655 9.781879
58.660 9.57785
58.665 9.793425
58.670 9.979996
58.675 9.615535
58.680 9.092838
58.685 9.091962
58.690 9.450795
58.695 9.626683
58.700 9.237611
58.705 9.103419
58.710 9.609788
58.715 9.925358
58.720 10.161454
58.725 9.671259
58.730 9.189548
58.735 9.262748
58.740 9.384788
58.745 9.479158
58.750 9.290956
58.755 9.144018
58.760 8.940972
58.765 9.429251
58.770 9.588535
58.775 9.572965
58.780 9.245952
58.785 9.502043
58.790 9.62606
58.795 10.331618
58.800 10.482934
58.805 9.996279
58.810 9.883641
58.815 10.204005
58.820 10.090726
58.825 10.098448
58.830 9.434917
58.835 8.952991
58.840 9.382526
58.845 9.610292
58.850 9.607631
58.855 9.229815
58.860 9.302162
58.865 9.379135
58.870 9.576611
58.875 9.467091
58.880 9.128455
58.885 8.688673
58.890 8.813353
58.895 8.759457
58.900 9.304396
58.905 9.351344
58.910 9.395845
58.915 9.378038
58.920 9.824326
58.925 9.733568
58.930 9.222297
58.935 8.779491
58.940 8.609959
58.945 8.746597
58.950 9.107752
58.955 8.639365
58.960 8.648917
58.965 8.580111
58.970 8.484459
58.975 8.451726
58.980 8.120402
58.985 8.132999
58.990 8.393894
58.995 8.722436
59.000 9.487622
59.005 9.714993
59.010 9.602522
59.015 9.474237
59.020 9.50626
59.025 9.612754
59.030 9.166035
59.035 8.611961
59.040 8.561052
59.045 8.761395
59.050 8.932343
59.055 8.914495
59.060 8.884889
59.065 9.151507
59.070 9.062751
59.075 9.000915
59.080 9.353568
59.085 9.167271
59.090 8.86697
59.095 8.696779
59.100 8.563441
59.105 8.647059
59.110 8.817175
59.115 8.857109
59.120 8.838646
59.125 9.129171
59.130 9.317088
59.135 9.321728
59.140 9.338851
59.145 8.827491
59.150 8.412233
59.155 8.127846
59.160 7.745135
59.165 7.68522
59.170 8.097978
59.175 8.197584
59.180 8.316497
59.185 8.006586
59.190 8.014091
59.195 7.778885
59.200 7.853948
59.205 7.660177
59.210 7.568927
59.215 7.10464
59.220 7.198002
59.225 7.465837
59.230 8.053114
59.235 8.1329
59.240 7.985462
59.245 8.282889
59.250 8.549391
59.255 8.490749
59.260 8.630411
59.265 8.358061
59.270 7.775141
59.275 7.710184
59.280 7.505483
59.285 7.690992
59.290 7.869807
59.295 7.691224
59.300 7.758755
59.305 7.774304
59.310 8.022941
59.315 8.093321
59.320 8.503562
59.325 8.445604
59.330 8.113029
59.335 8.105039
59.340 8.067663
59.345 7.897233
59.350 7.648436
59.355 7.511696
59.360 7.746246
59.365 8.024672
59.370 8.258654
59.375 8.480607
59.380 8.185016
59.385 8.499585
59.390 8.770411
59.395 8.537508
59.400 8.856766
59.405 8.598165
59.410 8.586131
59.415 8.917811
59.420 8.757125
59.425 8.44026
59.430 8.623916
59.435 8.571633
59.440 8.949755
59.445 8.886121
59.450 8.420611
59.455 8.404487
59.460 8.553578
59.465 8.509988
59.470 7.920187
59.475 7.50651
59.480 7.392176
59.485 7.334976
59.490 7.139578
59.495 6.952621
59.500 6.780854
59.505 7.202181
59.510 7.863112
59.515 8.115321
59.520 8.37958
59.525 8.259853
59.530 8.418341
59.535 8.379982
59.540 8.387837
59.545 7.876816
59.550 7.906144
59.555 8.094393
59.560 8.409736
59.565 8.654811
59.570 8.597019
59.575 8.692972
59.580 8.798107
59.585 8.368904
59.590 8.247926
59.595 7.928296
59.600 7.663293
59.605 8.039207
59.610 8.049903
59.615 8.076418
59.620 8.023413
59.625 7.866909
59.630 8.532718
59.635 8.459466
59.640 8.203614
59.645 8.00392
59.650 8.170483
59.655 8.619905
59.660 8.721939
59.665 8.429882
59.670 8.438171
59.675 8.67927
59.680 8.776061
59.685 9.041249
59.690 9.009425
59.695 9.012577
59.700 9.25757
59.705 9.386677
59.710 9.199146
59.715 9.477428
59.720 9.344069
59.725 9.304749
59.730 9.205341
59.735 8.917706
59.740 8.8882
59.745 9.106119
59.750 8.911107
59.755 8.913718
59.760 8.952205
59.765 9.149068
59.770 8.9925
59.775 8.881149
59.780 8.564637
59.785 8.640404
59.790 8.913284
59.795 8.929471
59.800 8.965096
59.805 9.286307
59.810 9.278693
59.815 9.20335
59.820 8.730965
59.825 8.650321
59.830 8.847394
59.835 8.776021
59.840 8.673543
59.845 9.151735
59.850 9.099337
59.855 9.456688
59.860 9.193597
59.865 9.026325
59.870 9.030261
59.875 8.630899
59.880 8.192498
59.885 8.461919
59.890 8.54884
59.895 8.502201
59.900 8.32368
59.905 7.748245
59.910 7.785725
59.915 7.696241
59.920 7.044345
59.925 6.73446
59.930 6.787793
59.935 6.99779
59.940 7.549426
59.945 8.266789
59.950 8.800387
59.955 9.644027
59.960 10.074112
59.965 9.916645
59.970 9.582546
59.975 9.782979
59.980 9.260755
59.985 9.081172
59.990 8.861225
59.995 8.637661
60.000 8.939781
60.005 9.606483
60.010 9.329263
60.015 9.394216
60.020 9.317196
60.025 8.982868
60.030 8.851797
60.035 8.689318
60.040 8.217537
60.045 8.019085
60.050 8.290648
60.055 8.341083
60.060 8.286986
60.065 8.623249
60.070 8.980089
60.075 9.294526
60.080 9.455551
60.085 9.121238
60.090 9.110248
60.095 8.980693
60.100 8.780667
60.105 8.605494
60.110 8.504444
60.115 8.239113
60.120 8.26514
60.125 8.032443
60.130 7.729106
60.135 7.824167
60.140 7.622118
60.145 7.347102
60.150 7.605803
60.155 7.529197
60.160 7.721126
60.165 7.895097
60.170 7.655348
60.175 8.014957
60.180 8.172999
60.185 8.062549
60.190 8.2
60.195 8.293038
60.200 8.58888
60.205 8.635065
60.210 8.561801
60.215 8.667304
60.220 8.754478
60.225 8.84565
60.230 8.80575
60.235 9.106873
60.240 9.051435
60.245 8.833854
60.250 8.969646
60.255 8.711773
60.260 8.415278
60.265 8.619573
60.270 8.35911
60.275 8.324977
60.280 8.427713
60.285 8.134425
60.290 8.585596
60.295 8.834802
60.300 8.723576
60.305 8.318496
60.310 7.98936
60.315 8.232611
60.320 8.364228
60.325 7.769855
60.330 7.40731
60.335 7.274731
60.340 7.265613
60.345 7.28653
60.350 7.349485
60.355 7.398188
60.360 7.373707
60.365 7.483603
60.370 7.327604
60.375 7.738276
60.380 7.908152
60.385 7.973904
60.390 8.536368
60.395 9.339372
60.400 9.313247
60.405 9.571529
60.410 9.527715
60.415 9.404291
60.420 9.315353
60.425 8.85201
60.430 8.498358
60.435 8.305613
60.440 8.028272
60.445 7.822957
60.450 7.641796
60.455 8.04362
60.460 8.090679
60.465 8.126677
60.470 8.944012
60.475 9.893517
60.480 10.189744
60.485 10.093319
60.490 9.315438
60.495 9.435037
60.500 8.942747
60.505 8.153559
60.510 7.854745
60.515 7.832466
60.520 7.790186
60.525 8.16462
60.530 7.919254
60.535 8.083783
60.540 7.91312
60.545 7.681985
60.550 7.817714
60.555 7.755818
60.560 7.379327
60.565 7.391498
60.570 7.814595
60.575 7.885711
60.580 7.814708
60.585 7.457456
60.590 7.850076
60.595 8.107408
60.600 8.201792
60.605 8.082498
60.610 8.122846
60.615 8.166786
60.620 8.215267
60.625 8.379962
60.630 8.385166
60.635 8.52937
60.640 8.5028
60.645 8.454195
60.650 8.638898
60.655 8.557659
60.660 7.954891
60.665 7.815912
60.670 7.628115
60.675 7.601706
60.680 7.38596
60.685 7.292065
60.690 7.629927
60.695 7.878013
60.700 7.722299
60.705 7.753994
60.710 7.82008
60.715 8.04727
60.720 7.886807
60.725 7.727751
60.730 8.053116
60.735 8.568023
60.740 8.555549
60.745 8.188507
60.750 8.379866
60.755 9.066287
60.760 9.245646
60.765 8.806361
60.770 8.620453
60.775 8.593418
60.780 8.583745
60.785 8.435308
60.790 8.270691
60.795 7.937675
60.800 7.779097
60.805 7.620815
60.810 7.920255
60.815 7.846811
60.820 7.66695
60.825 7.708573
60.830 7.782097
60.835 7.878998
60.840 7.646016
60.845 7.362454
60.850 8.141359
60.855 8.256645
60.860 8.009894
60.865 7.99916
60.870 8.245178
60.875 8.548492
60.880 8.507428
60.885 8.168974
60.890 8.272019
60.895 8.697228
60.900 8.797884
60.905 8.376625
60.910 8.137596
60.915 8.476672
60.920 8.779058
60.925 8.614097
60.930 8.339941
60.935 8.645608
60.940 9.120308
60.945 8.98038
60.950 8.823445
60.955 8.358321
60.960 8.581833
60.965 8.62041
60.970 8.381304
60.975 8.331202
60.980 8.49594
60.985 8.196606
60.990 8.216267
60.995 8.337407
61.000 8.361573
61.005 8.605226
61.010 8.665643
61.015 8.617466
61.020 8.558971
61.025 8.082333
61.030 7.690673
61.035 7.76484
61.040 7.493803
61.045 7.493316
61.050 7.590016
61.055 7.945939
61.060 8.657954
61.065 8.575049
61.070 8.550111
61.075 8.604603
61.080 8.783109
61.085 8.927372
61.090 8.848344
61.095 8.406458
61.100 8.410806
61.105 8.293374
61.110 8.437528
61.115 8.016849
61.120 7.733333
61.125 7.467484
61.130 7.541564
61.135 7.774297
61.140 7.925335
61.145 7.732095
61.150 8.002506
61.155 8.185734
61.160 8.592614
61.165 8.492883
61.170 8.207877
61.175 8.065863
61.180 8.184711
61.185 8.392099
61.190 8.54125
61.195 8.685735
61.200 9.272021
61.205 9.385308
61.210 9.106112
61.215 9.018147
61.220 8.71711
61.225 8.486752
61.230 8.366603
61.235 8.111433
61.240 7.844778
61.245 8.221879
61.250 7.957355
61.255 8.088924
61.260 8.054293
61.265 8.049438
61.270 8.439426
61.275 8.836555
61.280 9.188641
61.285 9.518811
61.290 9.795617
61.295 9.740208
61.300 9.375115
61.305 8.833328
61.310 8.375654
61.315 7.679038
61.320 7.590226
61.325 7.36133
61.330 7.466988
61.335 7.659208
61.340 7.969643
61.345 8.211143
61.350 8.595476
61.355 8.251822
61.360 8.093002
61.365 8.174271
61.370 8.180003
61.375 8.276171
61.380 8.344978
61.385 8.174403
61.390 8.45074
61.395 8.394427
61.400 7.802697
61.405 7.288345
61.410 6.957366
61.415 6.674953
61.420 6.815995
61.425 7.011275
61.430 7.445868
61.435 7.822373
61.440 8.19734
61.445 8.335435
61.450 8.340769
61.455 8.199621
61.460 7.724452
61.465 7.35991
61.470 7.826652
61.475 7.889387
61.480 7.91257
61.485 7.867781
61.490 7.941345
61.495 8.075966
61.500 8.219236
61.505 8.328621
61.510 8.303429
61.515 8.370782
61.520 8.565592
61.525 8.602506
61.530 8.814756
61.535 8.66326
61.540 8.239149
61.545 8.196853
61.550 8.197808
61.555 8.084958
61.560 8.180043
61.565 8.127749
61.570 8.409346
61.575 8.648959
61.580 8.89445
61.585 9.465102
61.590 9.279587
61.595 9.013813
61.600 9.104446
61.605 8.933508
61.610 8.803617
61.615 8.237498
61.620 7.914216
61.625 8.268954
61.630 8.436302
61.635 8.503244
61.640 8.605242
61.645 8.834594
61.650 8.893092
61.655 8.73084
61.660 8.799549
61.665 8.757056
61.670 8.352446
61.675 7.914101
61.680 7.811036
61.685 8.197991
61.690 8.042763
61.695 7.815527
61.700 7.963847
61.705 8.385139
61.710 8.740841
61.715 8.650521
61.720 8.705012
61.725 8.691102
61.730 8.622312
61.735 8.390413
61.740 8.065731
61.745 7.953453
61.750 7.997444
61.755 7.401315
61.760 7.448774
61.765 7.737813
61.770 7.487465
61.775 7.494009
61.780 7.826768
61.785 7.71162
61.790 7.735023
61.795 8.062799
61.800 8.107697
61.805 7.997156
61.810 8.040052
61.815 7.854558
61.820 7.72566
61.825 7.8342
61.830 7.4624
61.835 7.591559
61.840 8.08305
61.845 8.073456
61.850 8.321912
61.855 8.478602
61.860 9.051067
61.865 9.639243
61.870 9.681044
61.875 9.84723
61.880 10.113593
61.885 9.919263
61.890 10.275797
61.895 10.131405
61.900 9.872742
61.905 10.00407
61.910 9.846082
61.915 9.719934
61.920 9.605539
61.925 9.631421
61.930 9.71388
61.935 9.584249
61.940 9.397019
61.945 9.881838
61.950 9.847228
61.955 9.812851
61.960 9.473914
61.965 9.588209
61.970 9.24404
61.975 8.77072
61.980 8.075417
61.985 8.224379
61.990 8.203229
61.995 8.254051
62.000 7.906955
62.005 8.240191
62.010 8.402365
62.015 8.227325
62.020 7.868109
62.025 8.117741
62.030 7.895546
62.035 8.213016
62.040 8.224831
62.045 8.848953
62.050 9.239246
62.055 9.325137
62.060 9.268486
62.065 9.354173
62.070 9.089724
62.075 9.06223
62.080 8.800625
62.085 8.77907
62.090 9.200571
62.095 9.360672
62.100 9.329661
62.105 9.500221
62.110 9.519635
62.115 9.593484
62.120 9.774618
62.125 9.403157
62.130 9.83198
62.135 10.132221
62.140 10.179589
62.145 10.128666
62.150 10.205617
62.155 10.043738
62.160 10.131868
62.165 9.99324
62.170 9.890501
62.175 9.928974
62.180 9.921076
62.185 9.699312
62.190 9.486287
62.195 9.141571
62.200 8.895665
62.205 8.894865
62.210 8.866111
62.215 8.761187
62.220 8.758615
62.225 8.635086
62.230 8.746811
62.235 8.617617
62.240 8.375433
62.245 8.351252
62.250 8.448687
62.255 8.403184
62.260 8.789025
62.265 8.844541
62.270 9.110803
62.275 9.361208
62.280 9.239103
62.285 9.522435
62.290 9.662333
62.295 9.789282
62.300 9.827384
62.305 9.433897
62.310 8.871323
62.315 8.858184
62.320 8.745059
62.325 8.593876
62.330 8.278883
62.335 8.110271
62.340 8.311875
62.345 8.792787
62.350 8.636417
62.355 8.654687
62.360 8.831793
62.365 9.172804
62.370 9.041787
62.375 8.422024
62.380 8.042075
62.385 8.304718
62.390 8.091758
62.395 7.776935
62.400 7.90246
62.405 7.899716
62.410 8.359349
62.415 8.578112
62.420 8.337335
62.425 8.331545
62.430 8.234023
62.435 7.961628
62.440 8.204528
62.445 8.290642
62.450 8.3983
62.455 8.596211
62.460 9.086253
62.465 9.33937
62.470 9.065948
62.475 9.061362
62.480 9.628378
62.485 9.8797
62.490 10.200089
62.495 9.663538
62.500 9.50052
62.505 9.854967
62.510 9.686689
62.515 9.034058
62.520 8.872939
62.525 8.52715
62.530 8.398572
62.535 8.245811
62.540 8.360385
62.545 8.633887
62.550 8.896554
62.555 8.706734
62.560 8.574301
62.565 8.976375
62.570 8.90587
62.575 8.85426
62.580 8.729486
62.585 8.572937
62.590 8.305063
62.595 8.431696
62.600 8.306727
62.605 8.363632
62.610 8.006517
62.615 7.999776
62.620 8.052653
62.625 8.294411
62.630 8.553055
62.635 8.805698
62.640 9.339552
62.645 9.823502
62.650 10.090322
62.655 10.441802
62.660 10.365493
62.665 10.121761
62.670 9.988196
62.675 9.650352
62.680 9.581315
62.685 9.189546
62.690 8.835274
62.695 8.98141
62.700 8.89985
62.705 9.048934
62.710 9.191629
62.715 9.045806
62.720 9.592705
62.725 10.000175
62.730 10.102474
62.735 10.177325
62.740 9.770304
62.745 9.340408
62.750 9.279238
62.755 9.066705
62.760 8.807996
62.765 8.761578
62.770 9.064394
62.775 9.650112
62.780 10.269163
62.785 10.357758
62.790 10.287739
62.795 10.681602
62.800 10.827744
62.805 10.483622
62.810 10.443089
62.815 10.594792
62.820 10.799405
62.825 10.967572
62.830 10.756111
62.835 10.590244
62.840 10.603401
62.845 10.480242
62.850 9.845194
62.855 9.433957
62.860 9.296834
62.865 8.904323
62.870 8.968687
62.875 9.044018
62.880 8.800284
62.885 8.724661
62.890 8.561968
62.895 8.198675
62.900 8.598402
62.905 8.402997
62.910 8.063902
62.915 7.706053
62.920 7.828204
62.925 8.319873
62.930 8.393059
62.935 8.04184
62.940 7.982677
62.945 8.301919
62.950 8.732998
62.955 8.543217
62.960 8.203656
62.965 8.279325
62.970 8.698752
62.975 9.291181
62.980 9.417142
62.985 9.669481
62.990 9.995693
62.995 10.325728
63.000 10.584417
63.005 10.044671
63.010 9.621329
63.015 9.09774
63.020 8.950204
63.025 8.726042
63.030 8.257759
63.035 8.079263
63.040 8.192871
63.045 8.196121
63.050 8.470945
63.055 8.318378
63.060 8.706546
63.065 8.837898
63.070 8.829253
63.075 9.13763
63.080 9.197073
63.085 8.93412
63.090 8.647555
63.095 8.286977
63.100 8.208072
63.105 8.257524
63.110 8.034629
63.115 7.675608
63.120 8.002496
63.125 7.992871
63.130 8.293427
63.135 8.715005
63.140 8.281512
63.145 7.934203
63.150 8.449005
63.155 8.702648
63.160 8.794307
63.165 8.454053
63.170 7.782739
63.175 8.288771
63.180 8.853692
63.185 8.923693
63.190 8.875745
63.195 8.923671
63.200 8.863146
63.205 9.157947
63.210 9.054039
63.215 9.16134
63.220 9.184004
63.225 9.142115
63.230 9.255508
63.235 9.41316
63.240 9.258546
63.245 8.990097
63.250 8.619392
63.255 8.284526
63.260 8.171626
63.265 7.849686
63.270 7.75819
63.275 7.913559
63.280 8.199512
63.285 8.402663
63.290 8.657482
63.295 8.731701
63.300 8.989738
63.305 9.149946
63.310 8.979947
63.315 9.48956
63.320 9.639505
63.325 9.979596
63.330 10.307685
63.335 10.404419
63.340 10.407841
63.345 10.40828
63.350 9.796369
63.355 9.458498
63.360 9.399661
63.365 9.40103
63.370 9.276939
63.375 9.456042
63.380 9.558284
63.385 9.670005
63.390 9.575782
63.395 9.268105
63.400 9.244558
63.405 9.150002
63.410 9.142735
63.415 9.035442
63.420 9.2835
63.425 9.638695
63.430 9.679761
63.435 9.754996
63.440 10.084645
63.445 9.591284
63.450 9.592489
63.455 9.314578
63.460 8.980922
63.465 8.493156
63.470 8.059499
63.475 7.897233
63.480 7.930944
63.485 7.694058
63.490 7.965276
63.495 7.905145
63.500 8.281143
63.505 8.727311
63.510 8.924407
63.515 8.815503
63.520 8.654068
63.525 8.495848
63.530 8.414395
63.535 8.508012
63.540 8.27158
63.545 7.942207
63.550 8.187625
63.555 8.274426
63.560 7.883251
63.565 8.470353
63.570 8.610575
63.575 8.290843
63.580 8.554436
63.585 8.760997
63.590 9.133149
63.595 9.489067
63.600 9.311147
63.605 9.169571
63.610 9.483658
63.615 9.642344
63.620 9.475542
63.625 9.105265
63.630 8.689667
63.635 8.170959
63.640 7.898787
63.645 7.662345
63.650 7.144342
63.655 7.109456
63.660 7.711564
63.665 8.454615
63.670 8.660161
63.675 8.943194
63.680 9.309583
63.685 9.546326
63.690 9.524626
63.695 8.952001
63.700 8.532028
63.705 8.934102
63.710 8.925928
63.715 8.822702
63.720 8.91377
63.725 8.974208
63.730 9.000305
63.735 8.733475
63.740 8.453403
63.745 8.388515
63.750 8.415442
63.755 8.25974
63.760 8.219333
63.765 8.259459
63.770 8.296177
63.775 8.50559
63.780 8.465101
63.785 8.54714
63.790 8.701137
63.795 8.758622
63.800 8.933624
63.805 9.034911
63.810 8.338816
63.815 8.130003
63.820 7.891621
63.825 7.727738
63.830 7.323293
63.835 7.317208
63.840 7.444629
63.845 8.0557
63.850 8.317464
63.855 8.200544
63.860 8.117653
63.865 8.033709
63.870 7.831106
63.875 7.499168
63.880 7.362022
63.885 7.086066
63.890 7.290751
63.895 7.754625
63.900 7.868905
63.905 7.995226
63.910 8.458023
63.915 8.641552
63.920 8.940722
63.925 9.145868
63.930 9.014154
63.935 9.210838
63.940 9.206695
63.945 8.958529
63.950 8.826058
63.955 8.957343
63.960 8.735394
63.965 9.195919
63.970 9.131064
63.975 9.333543
63.980 9.472657
63.985 9.495619
63.990 9.264806
63.995 9.230828
64.000 8.716842
64.005 8.682573
64.010 8.779802
64.015 8.962896
64.020 9.530783
64.025 10.104623
64.030 10.248212
64.035 10.716522
64.040 11.308216
64.045 11.400063
64.050 11.315823
64.055 10.656364
64.060 10.094085
64.065 9.91834
64.070 9.640589
64.075 9.04086
64.080 8.662014
64.085 8.695087
64.090 8.766245
64.095 9.065779
64.100 9.098062
64.105 8.840369
64.110 9.195359
64.115 9.262423
64.120 8.946629
64.125 8.939457
64.130 9.300568
64.135 9.562167
64.140 9.751829
64.145 9.633647
64.150 10.163583
64.155 10.588763
64.160 10.566639
64.165 9.938968
64.170 9.967432
64.175 9.634875
64.180 9.404092
64.185 9.576088
64.190 9.92611
64.195 9.790545
64.200 9.70278
64.205 9.69486
64.210 9.86153
64.215 9.915979
64.220 9.007071
64.225 8.889598
64.230 9.181942
64.235 9.771437
64.240 9.899449
64.245 10.061307
64.250 10.173687
64.255 10.296406
64.260 9.882518
64.265 9.950589
64.270 9.944904
64.275 9.993229
64.280 10.200623
64.285 10.395656
64.290 10.508286
64.295 10.689953
64.300 10.418732
64.305 10.250795
64.310 9.97401
64.315 9.586087
64.320 9.363919
64.325 9.343901
64.330 9.178994
64.335 8.931688
64.340 8.362721
64.345 8.532166
64.350 8.553695
64.355 8.427122
64.360 8.296412
64.365 8.053505
64.370 8.171307
64.375 8.354616
64.380 8.150719
64.385 8.297608
64.390 8.549286
64.395 8.531965
64.400 8.665272
64.405 8.749172
64.410 9.124784
64.415 9.504267
64.420 9.548944
64.425 9.266232
64.430 9.730488
64.435 10.429873
64.440 10.926954
64.445 10.936262
64.450 10.914749
64.455 10.904021
64.460 11.179179
64.465 11.007306
64.470 10.987535
64.475 10.497685
64.480 10.282598
64.485 10.037523
64.490 9.759654
64.495 9.985255
64.500 9.78923
64.505 9.445167
64.510 9.343886
64.515 9.255845
64.520 9.07575
64.525 9.412187
64.530 9.081603
64.535 9.421574
64.540 9.792378
64.545 10.217546
64.550 10.699067
64.555 11.470394
64.560 11.793636
64.565 12.199915
64.570 12.302967
64.575 12.217872
64.580 12.579037
64.585 12.200603
64.590 11.730265
64.595 11.747147
64.600 11.295832
64.605 10.685444
64.610 10.499827
64.615 10.073635
64.620 10.091426
64.625 10.345463
64.630 10.153738
64.635 10.651215
64.640 11.201326
64.645 10.924403
64.650 10.973469
64.655 10.993855
64.660 10.747763
64.665 10.71294
64.670 10.612527
64.675 10.364708
64.680 10.909641
64.685 11.36202
64.690 11.098511
64.695 10.850188
64.700 10.805213
64.705 10.780974
64.710 10.910182
64.715 11.083808
64.720 11.423812
64.725 11.988019
64.730 12.065929
64.735 12.166013
64.740 12.225423
64.745 12.14187
64.750 11.691426
64.755 10.915749
64.760 10.771495
64.765 11.329888
64.770 11.48318
64.775 11.232146
64.780 10.814152
64.785 10.491201
64.790 10.161683
64.795 9.960315
64.800 9.781314
64.805 10.319429
64.810 11.050117
64.815 12.367207
64.820 13.61653
64.825 14.649199
64.830 15.512583
64.835 15.84154
64.840 15.512425
64.845 15.530251
64.850 15.481702
64.855 15.709841
64.860 15.707305
64.865 15.808715
64.870 15.81286
64.875 16.380877
64.880 16.861368
64.885 17.170921
64.890 17.550253
64.895 17.994953
64.900 18.397902
64.905 18.990915
64.910 19.131836
64.915 19.097582
64.920 19.296675
64.925 18.849459
64.930 18.695667
64.935 18.350407
64.940 18.347023
64.945 17.84094
64.950 18.039156
64.955 17.666662
64.960 18.202171
64.965 18.508316
64.970 18.782906
64.975 19.606174
64.980 20.014515
64.985 20.391613
64.990 20.535563
64.995 20.391392
65.000 20.388767
65.005 20.592634
65.010 20.334473
65.015 20.818371
65.020 20.851318
65.025 20.807234
65.030 20.646215
65.035 20.328451
65.040 20.516691
65.045 20.34741
65.050 20.218138
65.055 20.291323
65.060 20.24225
65.065 20.290302
65.070 20.122128
65.075 19.46015
65.080 18.982477
65.085 18.664581
65.090 18.536436
65.095 18.747597
65.100 18.534178
65.105 18.085789
65.110 17.5875
65.115 17.556787
65.120 17.370239
65.125 16.697216
65.130 16.320293
65.135 16.3668
65.140 16.612724
65.145 15.746288
65.150 15.33313
65.155 14.918539
65.160 14.750348
65.165 14.212531
65.170 14.087838
65.175 14.337665
65.180 14.897259
65.185 14.872917
65.190 14.786622
65.195 15.141218
65.200 15.483975
65.205 15.701016
65.210 15.540012
65.215 15.855592
65.220 15.630969
65.225 15.274972
65.230 15.174571
65.235 14.907016
65.240 14.518682
65.245 14.145817
65.250 14.004778
65.255 14.034444
65.260 14.25004
65.265 13.646379
65.270 13.397259
65.275 13.441154
65.280 13.288607
65.285 13.197277
65.290 12.853781
65.295 12.279453
65.300 12.591496
65.305 12.23533
65.310 11.789571
65.315 11.429213
65.320 11.036623
65.325 11.32443
65.330 11.197574
65.335 10.855035
65.340 10.932593
65.345 11.056216
65.350 11.057605
65.355 11.332846
65.360 11.082851
65.365 11.14712
65.370 11.076498
65.375 10.888857
65.380 10.617525
65.385 10.363002
65.390 9.880716
65.395 9.811446
65.400 9.804378
65.405 9.831607
65.410 9.718847
65.415 9.916658
65.420 10.330283
65.425 10.701403
65.430 10.434312
65.435 10.410592
65.440 10.46629
65.445 10.692353
65.450 10.881669
65.455 10.981837
65.460 11.008107
65.465 11.449222
65.470 11.01996
65.475 10.753769
65.480 10.31413
65.485 9.721721
65.490 9.014164
65.495 8.829301
65.500 8.605671
65.505 8.542632
65.510 8.194305
65.515 8.265182
65.520 8.897676
65.525 9.201891
65.530 9.426087
65.535 9.306889
65.540 9.509524
65.545 10.054283
65.550 9.833097
65.555 9.246474
65.560 8.933973
65.565 9.059143
65.570 9.516366
65.575 9.712046
65.580 10.016497
65.585 10.02358
65.590 10.062862
65.595 10.105273
65.600 9.824439
65.605 9.526191
65.610 9.334378
65.615 9.092353
65.620 9.534059
65.625 9.761454
65.630 9.943487
65.635 9.585296
65.640 9.369224
65.645 9.670292
65.650 9.437355
65.655 8.940824
65.660 9.119192
65.665 9.388542
65.670 9.794917
65.675 9.917357
65.680 9.937026
65.685 10.225975
65.690 10.00624
65.695 9.403823
65.700 9.024011
65.705 9.16502
65.710 9.23548
65.715 9.080261
65.720 9.485581
65.725 10.029638
65.730 10.423918
65.735 10.80248
65.740 10.972485
65.745 11.211197
65.750 10.929955
65.755 10.682911
65.760 10.439917
65.765 10.328882
65.770 10.050473
65.775 9.350228
65.780 8.957812
65.785 9.118486
65.790 8.919105
65.795 9.393608
65.800 8.982955
65.805 8.85787
65.810 9.078463
65.815 8.972072
65.820 8.704576
65.825 8.524808
65.830 8.121458
65.835 8.324021
65.840 8.69112
65.845 8.946226
65.850 9.299141
65.855 9.53116
65.860 9.745978
65.865 9.589075
65.870 9.988855
65.875 9.666924
65.880 9.760643
65.885 10.028141
65.890 10.183175
65.895 9.975779
65.900 10.327348
65.905 10.031751
65.910 10.046471
65.915 9.895594
65.920 9.670189
65.925 9.179175
65.930 9.053265
65.935 8.457997
65.940 8.412038
65.945 8.598974
65.950 8.394092
65.955 8.04038
65.960 8.607901
65.965 8.895334
65.970 9.529829
65.975 9.313008
65.980 9.336245
65.985 9.798841
65.990 10.404138
65.995 10.929805
66.000 11.167121
66.005 10.889122
66.010 10.708426
66.015 10.342594
66.020 9.602264
66.025 9.222608
66.030 8.978237
66.035 9.231098
66.040 9.60388
66.045 10.23406
66.050 10.811612
66.055 11.403971
66.060 11.19214
66.065 10.786405
66.070 10.075585
66.075 9.780045
66.080 9.429763
66.085 9.296126
66.090 9.561481
66.095 9.833446
66.100 10.122706
66.105 10.232579
66.110 10.607796
66.115 10.802492
66.120 10.510873
66.125 10.146543
66.130 9.795946
66.135 9.558598
66.140 9.433302
66.145 9.089802
66.150 9.289474
66.155 9.124449
66.160 9.235991
66.165 10.175156
66.170 10.74771
66.175 11.17758
66.180 11.431426
66.185 11.160471
66.190 11.194315
66.195 11.084643
66.200 10.17542
66.205 9.630825
66.210 9.436092
66.215 9.203381
66.220 9.119222
66.225 9.053638
66.230 9.050488
66.235 9.161554
66.240 9.066889
66.245 9.106789
66.250 9.260583
66.255 9.766553
66.260 9.858271
66.265 9.822182
66.270 10.06037
66.275 9.957976
66.280 9.690881
66.285 9.366925
66.290 9.255663
66.295 9.090799
66.300 9.357894
66.305 9.238913
66.310 9.074257
66.315 8.984285
66.320 8.790913
66.325 8.812894
66.330 9.329476
66.335 9.314076
66.340 9.454727
66.345 9.793128
66.350 9.68505
66.355 9.794553
66.360 9.666109
66.365 9.79601
66.370 9.358544
66.375 8.935204
66.380 8.7401
66.385 8.710283
66.390 8.422147
66.395 8.162545
66.400 7.922368
66.405 8.041041
66.410 7.875024
66.415 8.169621
66.420 8.477185
66.425 8.667001
66.430 8.596731
66.435 8.391807
66.440 8.51539
66.445 8.899131
66.450 9.168149
66.455 8.994258
66.460 9.003557
66.465 8.99794
66.470 8.98783
66.475 9.086229
66.480 9.524708
66.485 9.141114
66.490 9.480448
66.495 9.752591
66.500 9.877976
66.505 10.065728
66.510 9.708479
66.515 9.1819
66.520 9.132048
66.525 8.376937
66.530 8.255003
66.535 7.845235
66.540 7.466245
66.545 7.663541
66.550 7.598439
66.555 7.857266
66.560 8.091263
66.565 8.188644
66.570 8.261105
66.575 8.095142
66.580 7.904424
66.585 8.138916
66.590 8.380384
66.595 8.196802
66.600 8.398422
66.605 9.022387
66.610 9.233264
66.615 9.122485
66.620 9.155239
66.625 9.170086
66.630 9.351231
66.635 9.063317
66.640 8.587186
66.645 8.44803
66.650 8.42784
66.655 8.086689
66.660 7.991312
66.665 7.868373
66.670 7.873267
66.675 8.455815
66.680 8.897299
66.685 9.070005
66.690 9.020604
66.695 8.607409
66.700 9.115116
66.705 9.074929
66.710 9.232919
66.715 9.293623
66.720 9.623732
66.725 9.88085
66.730 9.728975
66.735 9.196788
66.740 9.161937
66.745 8.667517
66.750 8.297999
66.755 7.957906
66.760 7.785765
66.765 8.000316
66.770 7.876758
66.775 8.017012
66.780 7.690623
66.785 7.774767
66.790 7.946372
66.795 8.178418
66.800 8.425222
66.805 8.436457
66.810 8.022187
66.815 7.943999
66.820 7.509754
66.825 6.960531
66.830 6.606909
66.835 6.600258
66.840 6.846386
66.845 7.142854
66.850 7.470212
66.855 7.744435
66.860 7.861823
66.865 7.854755
66.870 7.467216
66.875 7.350787
66.880 7.185412
66.885 6.961448
66.890 7.042047
66.895 7.059975
66.900 6.766279
66.905 6.898613
66.910 6.65119
66.915 6.863038
66.920 6.913787
66.925 6.893676
66.930 7.405273
66.935 7.839675
66.940 7.975478
66.945 8.220784
66.950 8.145409
66.955 8.313052
66.960 8.074201
66.965 7.807343
66.970 7.583614
66.975 7.444701
66.980 7.204443
66.985 7.163611
66.990 7.016412
66.995 7.391431
67.000 7.76328
67.005 7.947517
67.010 8.196189
67.015 8.625264
67.020 8.682613
67.025 8.871388
67.030 8.501262
67.035 8.178247
67.040 8.069291
67.045 7.7308
67.050 7.851984
67.055 8.227557
67.060 8.175973
67.065 8.55579
67.070 8.84108
67.075 9.132869
67.080 9.35616
67.085 8.957582
67.090 8.75911
67.095 8.720286
67.100 8.293418
67.105 8.122581
67.110 7.883154
67.115 7.625035
67.120 7.391449
67.125 6.824985
67.130 6.609695
67.135 6.575679
67.140 6.317968
67.145 6.358052
67.150 6.614558
67.155 6.891018
67.160 7.748353
67.165 8.165491
67.170 8.394924
67.175 8.592278
67.180 8.985738
67.185 9.024309
67.190 8.787679
67.195 8.313903
67.200 8.304898
67.205 8.563639
67.210 8.388017
67.215 7.938024
67.220 8.137961
67.225 8.512829
67.230 8.557554
67.235 8.651233
67.240 8.066872
67.245 8.12764
67.250 7.860154
67.255 7.803144
67.260 7.653773
67.265 7.540948
67.270 7.31302
67.275 7.426541
67.280 7.366703
67.285 7.778839
67.290 8.033705
67.295 8.308526
67.300 8.332874
67.305 8.65385
67.310 9.255129
67.315 9.580811
67.320 9.553891
67.325 9.368112
67.330 9.13695
67.335 9.589976
67.340 9.611373
67.345 9.143668
67.350 8.779222
67.355 8.949087
67.360 8.953957
67.365 8.831159
67.370 8.325232
67.375 8.230898
67.380 8.609572
67.385 8.41339
67.390 7.871213
67.395 7.675107
67.400 8.14206
67.405 8.204614
67.410 8.141411
67.415 7.994157
67.420 8.305074
67.425 8.168561
67.430 7.887307
67.435 7.536374
67.440 7.468218
67.445 7.174476
67.450 7.206824
67.455 7.502182
67.460 8.029595
67.465 8.14815
67.470 8.385482
67.475 8.80975
67.480 9.130385
67.485 8.915571
67.490 8.66725
67.495 8.585546
67.500 8.774078
67.505 8.682501
67.510 8.273218
67.515 7.903313
67.520 7.944853
67.525 7.814831
67.530 7.427552
67.535 7.467445
67.540 7.392293
67.545 7.781078
67.550 8.172027
67.555 8.696808
67.560 9.01373
67.565 9.037965
67.570 9.071715
67.575 9.19339
67.580 9.002464
67.585 8.914117
67.590 8.523962
67.595 8.243671
67.600 8.289271
67.605 8.060119
67.610 8.030326
67.615 8.326457
67.620 8.162786
67.625 8.304273
67.630 8.543676
67.635 8.700625
67.640 8.505608
67.645 8.220521
67.650 8.117387
67.655 8.262756
67.660 8.243373
67.665 8.306605
67.670 8.076827
67.675 8.374436
67.680 8.542335
67.685 8.687572
67.690 8.667351
67.695 8.391065
67.700 8.092052
67.705 8.474304
67.710 8.256128
67.715 7.865886
67.720 7.499119
67.725 7.339668
67.730 7.54901
67.735 7.616714
67.740 7.490769
67.745 7.848101
67.750 8.177466
67.755 8.483107
67.760 8.787991
67.765 8.660665
67.770 8.61758
67.775 8.628024
67.780 8.678356
67.785 8.619948
67.790 8.697563
67.795 8.957066
67.800 8.804676
67.805 9.188372
67.810 9.149021
67.815 9.46845
67.820 9.879717
67.825 9.947592
67.830 10.025742
67.835 10.541986
67.840 10.231635
67.845 10.204221
67.850 10.007874
67.855 9.864349
67.860 9.585081
67.865 9.599417
67.870 9.514329
67.875 9.733607
67.880 9.777826
67.885 9.382706
67.890 9.099647
67.895 9.22024
67.900 8.986762
67.905 9.235774
67.910 9.263591
67.915 9.399149
67.920 9.415775
67.925 9.331851
67.930 9.207089
67.935 9.113011
67.940 8.876713
67.945 8.722474
67.950 8.682926
67.955 8.740113
67.960 8.631998
67.965 8.871568
67.970 9.131157
67.975 9.158896
67.980 9.521477
67.985 9.551053
67.990 9.70376
67.995 9.788074
68.000 9.681352
68.005 9.770502
68.010 9.745354
68.015 9.594503
68.020 9.502742
68.025 9.491855
68.030 9.599355
68.035 9.512053
68.040 9.509916
68.045 9.587214
68.050 9.568171
68.055 9.712998
68.060 9.842339
68.065 10.056768
68.070 10.134262
68.075 9.791911
68.080 9.489222
68.085 9.464592
68.090 9.347143
68.095 8.873497
68.100 8.833241
68.105 8.433365
68.110 8.583529
68.115 8.682393
68.120 8.676166
68.125 9.080047
68.130 9.222343
68.135 9.143001
68.140 9.395502
68.145 9.460269
68.150 9.338448
68.155 9.063992
68.160 8.716293
68.165 8.685518
68.170 8.794991
68.175 8.343095
68.180 8.347781
68.185 8.350878
68.190 8.595811
68.195 8.496691
68.200 8.431973
68.205 8.514822
68.210 8.909923
68.215 8.9122
68.220 9.038423
68.225 8.863412
68.230 8.639238
68.235 8.490185
68.240 8.061651
68.245 7.663989
68.250 7.381597
68.255 7.193784
68.260 7.641698
68.265 7.887008
68.270 7.937768
68.275 8.357766
68.280 8.452891
68.285 8.680416
68.290 8.711577
68.295 8.167625
68.300 8.109617
68.305 7.870013
68.310 7.902891
68.315 7.786672
68.320 7.838514
68.325 7.951729
68.330 8.035947
68.335 8.437412
68.340 8.209818
68.345 7.84951
68.350 7.973977
68.355 7.753178
68.360 7.614639
68.365 7.509261
68.370 7.060185
68.375 7.308464
68.380 7.561398
68.385 7.688934
68.390 7.749043
68.395 7.808982
68.400 8.001472
68.405 8.141449
68.410 8.243903
68.415 8.282153
68.420 8.400822
68.425 8.625523
68.430 8.678197
68.435 8.740356
68.440 8.677404
68.445 8.535954
68.450 8.27335
68.455 7.912783
68.460 7.742762
68.465 7.834171
68.470 8.010159
68.475 8.138136
68.480 8.268958
68.485 7.704762
68.490 7.794104
68.495 7.922591
68.500 7.979205
68.505 7.904889
68.510 7.490131
68.515 7.447924
68.520 8.589995
68.525 9.287
68.530 9.164751
68.535 8.946073
68.540 9.15336
68.545 9.507326
68.550 9.70034
68.555 9.072718
68.560 8.647353
68.565 8.338931
68.570 8.499343
68.575 8.336007
68.580 8.161632
68.585 7.732597
68.590 7.978515
68.595 7.98327
68.600 7.948308
68.605 7.901122
68.610 8.153932
68.615 8.610201
68.620 8.900964
68.625 8.862482
68.630 8.86834
68.635 9.164442
68.640 8.919635
68.645 8.821739
68.650 8.574326
68.655 8.542678
68.660 8.548827
68.665 8.792645
68.670 8.734965
68.675 8.699552
68.680 8.735774
68.685 9.147305
68.690 9.522684
68.695 9.867486
68.700 9.798433
68.705 10.111885
68.710 10.206712
68.715 10.236062
68.720 10.092042
68.725 9.479034
68.730 9.220633
68.735 9.118364
68.740 8.897884
68.745 8.860562
68.750 8.607769
68.755 8.481379
68.760 8.860262
68.765 8.762028
68.770 8.784869
68.775 8.73708
68.780 8.462786
68.785 8.46192
68.790 8.415291
68.795 8.213496
68.800 8.24383
68.805 8.174685
68.810 8.452228
68.815 8.897507
68.820 9.455055
68.825 9.662106
68.830 9.594892
68.835 9.843696
68.840 9.68991
68.845 9.409159
68.850 9.286997
68.855 8.693202
68.860 8.63395
68.865 8.258303
68.870 8.191716
68.875 8.331025
68.880 8.323342
68.885 8.329513
68.890 8.484874
68.895 8.555666
68.900 8.967244
68.905 9.029886
68.910 9.31583
68.915 9.366478
68.920 9.574438
68.925 9.826478
68.930 9.817456
68.935 9.631739
68.940 9.991666
68.945 9.791786
68.950 9.808572
68.955 9.61868
68.960 9.289394
68.965 9.116265
68.970 9.126718
68.975 8.692232
68.980 8.71987
68.985 8.700637
68.990 8.887824
68.995 9.262871
69.000 9.431649
69.005 9.213534
69.010 9.038606
69.015 8.857033
69.020 8.846213
69.025 8.359272
69.030 8.418203
69.035 8.32058
69.040 8.467066
69.045 8.602114
69.050 8.648037
69.055 8.77373
69.060 8.52597
69.065 8.266379
69.070 8.384387
69.075 8.387004
69.080 8.473248
69.085 9.059948
69.090 9.170731
69.095 9.795186
69.100 10.031136
69.105 10.549999
69.110 10.502763
69.115 10.88033
69.120 10.55699
69.125 10.57288
69.130 10.157458
69.135 9.914649
69.140 9.8965
69.145 10.145916
69.150 9.941741
69.155 10.222693
69.160 9.941278
69.165 10.132747
69.170 10.546561
69.175 10.284439
69.180 10.270796
69.185 9.863668
69.190 9.604016
69.195 9.966342
69.200 9.676411
69.205 9.127915
69.210 9.188361
69.215 9.254859
69.220 9.220563
69.225 9.076981
69.230 9.134756
69.235 9.194927
69.240 9.567078
69.245 9.343894
69.250 9.552192
69.255 9.82226
69.260 9.782105
69.265 9.545245
69.270 9.551638
69.275 9.641559
69.280 9.606213
69.285 9.512462
69.290 9.409757
69.295 9.33748
69.300 9.229753
69.305 9.206065
69.310 9.407473
69.315 9.293739
69.320 9.00853
69.325 9.350164
69.330 9.635364
69.335 10.093204
69.340 9.822113
69.345 9.140875
69.350 9.137731
69.355 9.092697
69.360 8.875951
69.365 8.759419
69.370 8.347746
69.375 8.393148
69.380 8.335208
69.385 8.472149
69.390 8.749921
69.395 8.808815
69.400 8.863232
69.405 8.839154
69.410 9.079009
69.415 9.626993
69.420 9.530873
69.425 9.126151
69.430 8.820913
69.435 8.719296
69.440 8.578433
69.445 8.487708
69.450 8.261802
69.455 7.973248
69.460 7.945955
69.465 7.898558
69.470 7.805239
69.475 7.829615
69.480 7.863006
69.485 7.899137
69.490 7.951095
69.495 7.965904
69.500 8.091792
69.505 8.327423
69.510 8.528393
69.515 8.660089
69.520 8.648077
69.525 8.783399
69.530 8.747929
69.535 8.602784
69.540 8.488879
69.545 8.394977
69.550 8.40217
69.555 8.33816
69.560 8.06347
69.565 8.103395
69.570 8.143833
69.575 8.277287
69.580 8.139631
69.585 8.011204
69.590 8.381651
69.595 8.722048
69.600 8.652729
69.605 8.8092
69.610 8.491415
69.615 8.696032
69.620 8.491495
69.625 8.349425
69.630 8.547486
69.635 8.606773
69.640 8.569683
69.645 8.809819
69.650 9.018695
69.655 9.049949
69.660 8.806436
69.665 8.477325
69.670 8.213661
69.675 8.061631
69.680 8.053267
69.685 7.932969
69.690 8.203595
69.695 8.092375
69.700 8.109488
69.705 8.174541
69.710 8.374199
69.715 8.305791
69.720 8.170957
69.725 7.965667
69.730 8.098562
69.735 8.357932
69.740 8.710756
69.745 8.809904
69.750 8.735435
69.755 8.564542
69.760 8.681713
69.765 8.822052
69.770 8.623381
69.775 7.9837
69.780 7.752349
69.785 7.591564
69.790 7.703737
69.795 7.763625
69.800 7.864985
69.805 7.926069
69.810 8.017632
69.815 8.358212
69.820 8.592206
69.825 8.330922
69.830 8.118939
69.835 8.073833
69.840 8.38733
69.845 8.534719
69.850 8.267203
69.855 7.965463
69.860 8.581567
69.865 8.969274
69.870 8.718611
69.875 8.719515
69.880 8.776346
69.885 9.124559
69.890 9.340623
69.895 9.050595
69.900 8.811773
69.905 9.007504
69.910 8.76226
69.915 8.624407
69.920 8.296044
69.925 8.226118
69.930 7.957117
69.935 7.879841
69.940 7.660507
69.945 7.827969
69.950 7.840228
69.955 8.098317
69.960 8.080441
69.965 8.48659
69.970 8.586205
69.975 8.511633
69.980 8.216328
69.985 8.175986
69.990 7.943851
69.995 7.827613
70.000 7.570984
70.005 7.015158
70.010 7.055227
70.015 7.170514
70.020 6.884197
70.025 6.61627
70.030 6.581053
70.035 6.788157
70.040 7.434021
70.045 7.801662
70.050 7.831271
70.055 8.443128
70.060 8.995435
70.065 9.524187
70.070 9.620674
70.075 9.991903
70.080 10.295451
70.085 10.536209
70.090 10.415275
70.095 10.065174
70.100 9.778833
70.105 9.879977
70.110 9.204752
70.115 8.769093
70.120 8.569958
70.125 8.419706
70.130 8.863095
70.135 9.274766
70.140 9.405684
70.145 9.576862
70.150 9.890068
70.155 10.234346
70.160 10.353616
70.165 10.066658
70.170 10.053687
70.175 10.081826
70.180 9.649499
70.185 9.194267
70.190 9.160695
70.195 9.081669
70.200 9.119271
70.205 9.130422
70.210 9.357694
70.215 10.125322
70.220 10.357929
70.225 10.235525
70.230 9.999829
70.235 9.833946
70.240 9.464457
70.245 9.237371
70.250 8.937683
70.255 9.096201
70.260 9.445234
70.265 9.416427
70.270 9.431628
70.275 9.099094
70.280 9.030363
70.285 8.851897
70.290 8.441603
70.295 8.240712
70.300 8.252863
70.305 8.30841
70.310 8.60403
70.315 8.575534
70.320 8.421628
70.325 8.572271
70.330 9.119508
70.335 9.218179
70.340 9.444952
70.345 9.4237
70.350 9.551943
70.355 9.727718
70.360 9.969355
70.365 9.344552
70.370 9.243652
70.375 9.093169
70.380 9.205811
70.385 9.325159
70.390 9.372015
70.395 9.173123
70.400 9.60193
70.405 9.726439
70.410 9.795056
70.415 9.477915
70.420 9.247701
70.425 9.039312
70.430 8.808739
70.435 8.745459
70.440 8.340531
70.445 8.43379
70.450 8.466386
70.455 8.509619
70.460 8.665257
70.465 8.666755
70.470 8.670753
70.475 8.463996
70.480 7.955856
70.485 7.974857
70.490 7.868306
70.495 7.818864
70.500 7.849645
70.505 8.224601
70.510 8.590512
70.515 9.463898
70.520 9.749435
70.525 9.952749
70.530 10.110805
70.535 9.963115
70.540 9.814364
70.545 9.906447
70.550 9.544676
70.555 9.432193
70.560 9.432486
70.565 9.062777
70.570 9.172709
70.575 9.47886
70.580 9.160314
70.585 9.099485
70.590 8.769596
70.595 8.852313
70.600 8.896827
70.605 8.616295
70.610 8.452014
70.615 8.674984
70.620 8.797012
70.625 8.678511
70.630 8.700038
70.635 8.667838
70.640 8.652081
70.645 8.57716
70.650 8.777449
70.655 9.296676
70.660 9.033392
70.665 9.00093
70.670 9.031301
70.675 9.023079
70.680 8.97821
70.685 8.581133
70.690 8.42537
70.695 8.586394
70.700 8.663841
70.705 9.080174
70.710 8.825236
70.715 8.712638
70.720 8.57918
70.725 8.596095
70.730 8.4506
70.735 8.090552
70.740 7.828056
70.745 7.612231
70.750 7.314492
70.755 7.27708
70.760 7.63404
70.765 7.909188
70.770 8.159047
70.775 8.360676
70.780 8.666554
70.785 8.526228
70.790 8.692659
70.795 8.361401
70.800 8.265512
70.805 8.167919
70.810 8.512955
70.815 8.436143
70.820 8.693646
70.825 8.842489
70.830 9.230873
70.835 9.034884
70.840 8.797056
70.845 8.442033
70.850 8.670107
70.855 8.527196
70.860 8.786792
70.865 8.83604
70.870 9.246177
70.875 9.067641
70.880 9.017513
70.885 8.816611
70.890 8.656488
70.895 7.768928
70.900 7.532771
70.905 7.409961
70.910 7.410341
70.915 7.503253
70.920 7.323015
70.925 7.287008
70.930 7.396824
70.935 7.397517
70.940 7.382934
70.945 7.697565
70.950 7.826975
70.955 8.029848
70.960 8.100178
70.965 8.110601
70.970 8.181866
70.975 8.24157
70.980 7.954287
70.985 7.751422
70.990 7.765634
70.995 7.679779
71.000 8.251871
71.005 8.530038
71.010 8.868149
71.015 9.020704
71.020 9.063016
71.025 9.048645
71.030 8.932714
71.035 8.753551
71.040 8.388055
71.045 8.11167
71.050 8.189224
71.055 8.348299
71.060 8.628228
71.065 8.728548
71.070 8.816934
71.075 8.981921
71.080 8.970889
71.085 8.752681
71.090 8.354222
71.095 8.31183
71.100 8.158014
71.105 7.93232
71.110 8.119847
71.115 8.274855
71.120 8.412469
71.125 8.864372
71.130 8.673401
71.135 8.611389
71.140 8.653979
71.145 8.721535
71.150 8.722901
71.155 8.661102
71.160 8.173909
71.165 8.157522
71.170 7.978503
71.175 7.760892
71.180 7.687665
71.185 7.712365
71.190 7.508128
71.195 7.808908
71.200 8.044178
71.205 7.93749
71.210 7.863614
71.215 7.571723
71.220 7.32486
71.225 7.390777
71.230 7.06399
71.235 7.017954
71.240 7.459372
71.245 7.698705
71.250 8.041912
71.255 8.235446
71.260 8.391319
71.265 8.900469
71.270 9.179311
71.275 8.99931
71.280 8.675188
71.285 8.50621
71.290 8.500166
71.295 8.212538
71.300 7.525623
71.305 6.757345
71.310 6.466062
71.315 6.672096
71.320 7.08396
71.325 7.027133
71.330 6.691305
71.335 6.892537
71.340 7.632459
71.345 8.104412
71.350 7.906573
71.355 7.666927
71.360 8.000946
71.365 8.304771
71.370 8.234138
71.375 8.109075
71.380 8.056642
71.385 8.358719
71.390 8.277906
71.395 8.113473
71.400 8.530527
71.405 8.475773
71.410 8.525366
71.415 8.241255
71.420 8.408225
71.425 8.731807
71.430 8.393008
71.435 7.676234
71.440 7.388038
71.445 7.549103
71.450 7.816121
71.455 7.409383
71.460 7.544519
71.465 7.786372
71.470 8.122992
71.475 8.309388
71.480 8.22037
71.485 8.479879
71.490 8.62584
71.495 8.59549
71.500 9.370399
71.505 9.517944
71.510 9.469913
71.515 9.119445
71.520 8.826729
71.525 9.161176
71.530 9.001071
71.535 8.671487
71.540 8.72539
71.545 8.636843
71.550 8.88002
71.555 8.502067
71.560 8.130713
71.565 7.846835
71.570 7.306706
71.575 7.482563
71.580 7.371121
71.585 7.286436
71.590 7.336577
71.595 7.627287
71.600 7.968765
71.605 8.062826
71.610 7.662086
71.615 7.703263
71.620 7.745658
71.625 7.722767
71.630 8.008839
71.635 7.697188
71.640 7.919279
71.645 8.52077
71.650 8.39413
71.655 8.62133
71.660 8.170595
71.665 8.174717
71.670 8.402604
71.675 8.011518
71.680 7.970558
71.685 7.978471
71.690 7.829189
71.695 8.019603
71.700 7.596622
71.705 7.475376
71.710 7.463447
71.715 7.482793
71.720 7.866437
71.725 7.820313
71.730 7.884995
71.735 8.423185
71.740 8.872342
71.745 8.957668
71.750 8.651807
71.755 8.528513
71.760 8.664785
71.765 8.825116
71.770 8.801681
71.775 8.555126
71.780 8.638828
71.785 8.862178
71.790 8.572564
71.795 8.265369
71.800 8.017457
71.805 7.945015
71.810 8.128264
71.815 8.198329
71.820 8.067892
71.825 8.432918
71.830 8.800571
71.835 8.744972
71.840 8.823384
71.845 8.640221
71.850 8.371845
71.855 8.466272
71.860 7.99415
71.865 7.83316
71.870 7.599977
71.875 7.704703
71.880 7.729709
71.885 7.975638
71.890 7.959129
71.895 8.108538
71.900 8.389428
71.905 8.219831
71.910 8.340812
71.915 8.469638
71.920 8.621577
71.925 8.981873
71.930 8.978352
71.935 8.838566
71.940 8.960676
71.945 8.375978
71.950 8.131791
71.955 7.88764
71.960 7.650747
71.965 7.707174
71.970 7.660254
71.975 7.494784
71.980 7.539575
71.985 7.621998
71.990 7.545907
71.995 7.289644
72.000 7.13994
72.005 6.947486
72.010 7.405179
72.015 7.885435
72.020 8.417417
72.025 8.593464
72.030 8.907044
72.035 8.941552
72.040 8.906987
72.045 8.953755
72.050 8.651431
72.055 8.249057
72.060 8.343095
72.065 8.255876
72.070 8.131889
72.075 8.377129
72.080 8.433324
72.085 8.867917
72.090 8.709645
72.095 8.629584
72.100 8.968216
72.105 9.476704
72.110 9.541524
72.115 9.337077
72.120 9.050104
72.125 9.076644
72.130 8.871394
72.135 8.389084
72.140 7.604481
72.145 7.304164
72.150 7.126974
72.155 6.985743
72.160 6.784595
72.165 6.763052
72.170 7.140748
72.175 7.317732
72.180 7.398738
72.185 7.794999
72.190 7.750602
72.195 8.004428
72.200 8.188319
72.205 8.516814
72.210 8.831948
72.215 8.78974
72.220 8.877681
72.225 9.23514
72.230 9.124025
72.235 8.866352
72.240 8.69483
72.245 8.912231
72.250 9.14979
72.255 9.134712
72.260 9.303217
72.265 9.371617
72.270 9.76662
72.275 9.548591
72.280 9.261769
72.285 8.875567
72.290 8.378441
72.295 8.244306
72.300 7.958484
72.305 7.59034
72.310 7.621459
72.315 7.805929
72.320 7.591668
72.325 7.391244
72.330 7.093986
72.335 7.259923
72.340 7.465178
72.345 7.680183
72.350 7.630542
72.355 7.91539
72.360 8.529444
72.365 8.770978
72.370 8.654281
72.375 8.559653
72.380 8.606223
72.385 8.511565
72.390 8.226712
72.395 7.951098
72.400 7.78559
72.405 7.791128
72.410 7.463286
72.415 7.279563
72.420 7.542117
72.425 7.549731
72.430 7.431586
72.435 7.568955
72.440 7.729042
72.445 7.888849
72.450 7.735964
72.455 7.909405
72.460 7.923395
72.465 7.890756
72.470 7.47507
72.475 7.276298
72.480 7.432223
72.485 7.186855
72.490 7.199116
72.495 7.569359
72.500 8.138245
72.505 8.494429
72.510 8.423569
72.515 8.031035
72.520 8.59448
72.525 8.455653
72.530 8.415764
72.535 8.053237
72.540 8.056319
72.545 8.438754
72.550 8.820749
72.555 8.741876
72.560 8.552837
72.565 8.442622
72.570 8.522006
72.575 8.866856
72.580 8.51583
72.585 8.048516
72.590 8.20175
72.595 8.326577
72.600 8.437991
72.605 8.228659
72.610 8.024456
72.615 8.223845
72.620 8.636759
72.625 8.719134
72.630 9.086352
72.635 8.960241
72.640 8.661562
72.645 8.314825
72.650 8.234027
72.655 8.060183
72.660 7.541152
72.665 7.141876
72.670 7.037631
72.675 7.572116
72.680 7.745175
72.685 7.405765
72.690 7.835118
72.695 8.221172
72.700 8.369618
72.705 8.632601
72.710 8.575156
72.715 8.77172
72.720 8.508184
72.725 7.67526
72.730 7.582564
72.735 7.600308
72.740 7.310303
72.745 7.172386
72.750 6.867703
72.755 7.088407
72.760 7.197512
72.765 7.020655
72.770 6.809405
72.775 6.865566
72.780 7.196249
72.785 7.225664
72.790 7.289313
72.795 7.654525
72.800 7.831161
72.805 7.875953
72.810 7.629717
72.815 7.410487
72.820 7.550349
72.825 7.598012
72.830 7.544734
72.835 7.655674
72.840 7.672878
72.845 7.801911
72.850 7.892585
72.855 7.799833
72.860 7.371988
72.865 7.006503
72.870 7.028814
72.875 7.278446
72.880 7.631709
72.885 7.932964
72.890 8.31681
72.895 8.436864
72.900 8.555755
72.905 8.364511
72.910 8.072538
72.915 7.840641
72.920 7.535184
72.925 7.373024
72.930 7.006252
72.935 6.891397
72.940 7.251268
72.945 7.290093
72.950 7.411339
72.955 7.332141
72.960 7.541
72.965 8.252549
72.970 8.408845
72.975 8.458395
72.980 8.287903
72.985 8.486157
72.990 8.632398
72.995 8.156663
73.000 7.938348
