!@!!GADDS PLOTSO FILE: Chi integration type
!@!!Title/SampleName: map-173
!@!!Comment: ?
!@!!User: Bruker Instrument Administrator
!@!!Site: University of Illinois Chicago
!@!!Frame: map-173_01_000.gfrm
!@!!Wavelengths    1.54184   1.54056   1.54439
!@!!Frame angles: 2Theta: 63.000 Omega: 50.000 Phi: 0.000 Chi: 90.000
!@!!Integration range: 2Theta: 53.000 to 73.000  Gamma: -105.000 to -75.000
!@!!Integration method: bin normalized
!@!N
!@!SS
!@!M
!@!L 0.0 0.0 0.0 0.0
!@!XDegrees
!@!YCounts
53.000 3.621351
53.005 3.59921
53.010 3.924296
53.015 4.06469
53.020 4.259176
53.025 4.497108
53.030 4.817548
53.035 4.807052
53.040 4.659284
53.045 4.111319
53.050 3.863661
53.055 3.912632
53.060 3.990717
53.065 3.602634
53.070 3.34927
53.075 3.279802
53.080 3.378766
53.085 3.339312
53.090 3.168605
53.095 3.678151
53.100 4.167254
53.105 4.644149
53.110 4.698739
53.115 4.827551
53.120 5.021479
53.125 4.964656
53.130 4.518208
53.135 4.547818
53.140 4.681212
53.145 4.821256
53.150 4.998682
53.155 5.054795
53.160 5.079499
53.165 4.816716
53.170 4.453024
53.175 4.131898
53.180 3.958842
53.185 3.731976
53.190 3.570815
53.195 3.400596
53.200 3.426617
53.205 3.460312
53.210 3.418702
53.215 3.145134
53.220 3.007079
53.225 2.991969
53.230 2.983602
53.235 2.932664
53.240 3.172327
53.245 3.533621
53.250 3.476618
53.255 3.478137
53.260 3.373183
53.265 3.288126
53.270 3.245091
53.275 3.080824
53.280 3.35947
53.285 3.895037
53.290 3.948334
53.295 4.548406
53.300 4.816876
53.305 5.05852
53.310 5.034009
53.315 4.737655
53.320 4.833705
53.325 4.725471
53.330 4.242507
53.335 4.044116
53.340 3.638975
53.345 3.540715
53.350 3.586542
53.355 3.593509
53.360 3.533184
53.365 3.582158
53.370 3.723581
53.375 3.718063
53.380 3.662233
53.385 3.596523
53.390 3.518037
53.395 3.674321
53.400 3.708872
53.405 3.787431
53.410 3.882669
53.415 3.70568
53.420 3.741957
53.425 3.967998
53.430 4.271938
53.435 4.241272
53.440 4.188553
53.445 4.572961
53.450 4.446039
53.455 4.245914
53.460 3.798036
53.465 3.418186
53.470 3.413125
53.475 3.492676
53.480 3.395016
53.485 3.421377
53.490 3.135971
53.495 3.349057
53.500 3.486983
53.505 3.523102
53.510 3.42762
53.515 3.440449
53.520 3.568814
53.525 4.057901
53.530 3.903105
53.535 3.74203
53.540 3.542034
53.545 3.332502
53.550 3.277118
53.555 3.379348
53.560 3.122849
53.565 3.082967
53.570 3.217165
53.575 3.429113
53.580 3.403219
53.585 3.440055
53.590 3.284797
53.595 3.558198
53.600 3.521465
53.605 3.23469
53.610 3.358531
53.615 3.365116
53.620 3.517663
53.625 3.756835
53.630 3.959217
53.635 4.331114
53.640 4.321444
53.645 4.046464
53.650 4.174878
53.655 3.855064
53.660 3.454345
53.665 2.919294
53.670 2.831495
53.675 2.940659
53.680 3.079439
53.685 3.016873
53.690 3.311548
53.695 3.373066
53.700 3.507776
53.705 3.260562
53.710 3.242022
53.715 3.338675
53.720 3.415511
53.725 3.642885
53.730 3.685123
53.735 3.976088
53.740 4.127137
53.745 4.033978
53.750 4.021254
53.755 3.953963
53.760 3.998546
53.765 4.105427
53.770 3.978289
53.775 4.297965
53.780 4.20841
53.785 4.001083
53.790 3.765387
53.795 3.610389
53.800 3.466904
53.805 3.388435
53.810 3.464169
53.815 3.623932
53.820 3.550627
53.825 3.726292
53.830 3.807084
53.835 3.928369
53.840 3.935782
53.845 3.647462
53.850 3.479539
53.855 3.603506
53.860 3.568931
53.865 3.660471
53.870 3.5102
53.875 3.472161
53.880 3.4472
53.885 3.552313
53.890 3.458841
53.895 3.617112
53.900 3.701548
53.905 3.7754
53.910 3.651303
53.915 3.684797
53.920 3.544448
53.925 3.500901
53.930 3.384023
53.935 3.420753
53.940 3.433652
53.945 3.502087
53.950 3.546154
53.955 3.524483
53.960 3.332676
53.965 3.162884
53.970 3.062438
53.975 3.107966
53.980 3.416078
53.985 3.777081
53.990 3.646127
53.995 3.877961
54.000 3.879179
54.005 3.961677
54.010 3.966433
54.015 3.645303
54.020 3.635011
54.025 3.835608
54.030 3.759705
54.035 3.371777
54.040 3.492584
54.045 3.235555
54.050 3.31477
54.055 3.210872
54.060 2.996363
54.065 2.818546
54.070 2.905026
54.075 2.946053
54.080 3.032665
54.085 3.138216
54.090 3.370498
54.095 3.392479
54.100 3.696314
54.105 3.928209
54.110 3.749524
54.115 3.689531
54.120 3.516949
54.125 3.41693
54.130 3.649068
54.135 3.387051
54.140 3.316088
54.145 3.448302
54.150 3.56353
54.155 3.665496
54.160 3.49155
54.165 3.773802
54.170 3.848428
54.175 3.954142
54.180 4.227289
54.185 4.15571
54.190 4.069983
54.195 4.037376
54.200 4.146344
54.205 4.099653
54.210 3.936819
54.215 3.750769
54.220 3.911072
54.225 4.058237
54.230 4.201695
54.235 4.149018
54.240 4.18787
54.245 4.298182
54.250 4.269743
54.255 4.205578
54.260 4.064352
54.265 3.822536
54.270 4.04213
54.275 4.093724
54.280 3.974798
54.285 4.325388
54.290 4.357968
54.295 4.407744
54.300 4.315084
54.305 4.070518
54.310 3.888787
54.315 3.820603
54.320 3.543514
54.325 3.527262
54.330 3.558351
54.335 3.787179
54.340 3.853334
54.345 4.199511
54.350 4.098168
54.355 4.0756
54.360 4.006531
54.365 3.958403
54.370 3.457701
54.375 3.392466
54.380 3.540869
54.385 3.838134
54.390 3.802572
54.395 3.529882
54.400 3.554369
54.405 3.833405
54.410 3.405872
54.415 2.801598
54.420 2.41802
54.425 2.734879
54.430 2.901632
54.435 2.796462
54.440 2.584249
54.445 2.85787
54.450 3.242084
54.455 3.287471
54.460 3.127766
54.465 3.253284
54.470 3.61237
54.475 4.009406
54.480 3.724701
54.485 3.632691
54.490 3.727133
54.495 3.749505
54.500 3.698907
54.505 3.755167
54.510 3.578106
54.515 3.923979
54.520 4.090615
54.525 4.223325
54.530 4.375664
54.535 4.415134
54.540 4.178892
54.545 4.096429
54.550 3.889504
54.555 3.718613
54.560 3.46922
54.565 3.499474
54.570 3.664801
54.575 3.925252
54.580 3.986616
54.585 4.07818
54.590 4.22663
54.595 4.06478
54.600 3.844994
54.605 3.684015
54.610 3.917429
54.615 3.899097
54.620 3.830955
54.625 3.776988
54.630 3.845757
54.635 3.81833
54.640 3.668947
54.645 3.342191
54.650 3.257399
54.655 3.264609
54.660 3.293388
54.665 3.489411
54.670 3.693597
54.675 3.411966
54.680 3.410156
54.685 3.432411
54.690 3.698142
54.695 3.778991
54.700 3.739243
54.705 3.842876
54.710 4.111143
54.715 4.351249
54.720 4.49038
54.725 4.522238
54.730 4.509195
54.735 4.314667
54.740 4.189672
54.745 4.074811
54.750 4.12931
54.755 4.270907
54.760 4.196513
54.765 4.193004
54.770 4.092184
54.775 3.889786
54.780 3.81077
54.785 3.680853
54.790 3.539012
54.795 3.468384
54.800 3.743679
54.805 3.958863
54.810 4.278438
54.815 4.551921
54.820 4.254415
54.825 4.426903
54.830 4.265466
54.835 4.21822
54.840 4.084413
54.845 4.205948
54.850 4.098073
54.855 4.067711
54.860 4.139561
54.865 4.07405
54.870 4.106629
54.875 4.258018
54.880 3.909242
54.885 3.675032
54.890 3.716303
54.895 3.911041
54.900 4.008409
54.905 4.193561
54.910 4.149012
54.915 4.830828
54.920 5.215096
54.925 5.211673
54.930 4.859315
54.935 4.60578
54.940 4.277637
54.945 4.438694
54.950 4.244564
54.955 4.400239
54.960 4.497261
54.965 4.718601
54.970 4.659053
54.975 4.401097
54.980 4.069049
54.985 3.576864
54.990 3.397742
54.995 3.331889
55.000 3.210149
55.005 3.243573
55.010 3.505335
55.015 3.755723
55.020 3.814163
55.025 3.685456
55.030 3.495373
55.035 3.582316
55.040 3.56332
55.045 3.330926
55.050 3.161434
55.055 2.920616
55.060 2.651112
55.065 2.789518
55.070 2.701858
55.075 2.828768
55.080 2.972709
55.085 3.066253
55.090 3.344175
55.095 3.615853
55.100 3.83044
55.105 3.926035
55.110 4.082428
55.115 4.668242
55.120 4.901557
55.125 5.063019
55.130 5.110413
55.135 5.013404
55.140 5.090543
55.145 5.003046
55.150 4.35795
55.155 4.405659
55.160 4.432121
55.165 4.325529
55.170 4.327414
55.175 4.049599
55.180 3.756984
55.185 3.820161
55.190 3.596593
55.195 3.695587
55.200 3.812366
55.205 3.917836
55.210 4.095728
55.215 4.330365
55.220 4.42561
55.225 4.305645
55.230 4.173338
55.235 4.220077
55.240 4.129875
55.245 3.921488
55.250 3.823233
55.255 3.720389
55.260 3.620267
55.265 3.413689
55.270 3.400964
55.275 3.5948
55.280 3.636666
55.285 3.833941
55.290 3.87771
55.295 4.320598
55.300 4.439686
55.305 4.41029
55.310 4.283549
55.315 4.147466
55.320 3.934977
55.325 3.985777
55.330 3.652139
55.335 3.34424
55.340 3.108585
55.345 3.001893
55.350 3.047057
55.355 3.202469
55.360 3.489221
55.365 3.786001
55.370 3.933482
55.375 4.188192
55.380 4.786794
55.385 5.203076
55.390 5.048522
55.395 4.762418
55.400 4.70797
55.405 4.691433
55.410 4.51707
55.415 4.417552
55.420 4.378126
55.425 4.292991
55.430 4.062774
55.435 4.269638
55.440 4.344824
55.445 4.272466
55.450 3.910501
55.455 3.811993
55.460 3.986424
55.465 4.431032
55.470 4.402836
55.475 4.554119
55.480 4.59383
55.485 4.650484
55.490 4.640094
55.495 4.595135
55.500 4.310766
55.505 4.142098
55.510 3.87945
55.515 3.668275
55.520 3.647751
55.525 3.675653
55.530 3.659218
55.535 3.900777
55.540 4.409126
55.545 4.950458
55.550 5.285416
55.555 5.123781
55.560 5.289873
55.565 5.454367
55.570 5.088087
55.575 4.763711
55.580 4.71915
55.585 4.689466
55.590 4.842781
55.595 4.62041
55.600 4.277198
55.605 4.360169
55.610 4.099961
55.615 3.919192
55.620 3.908459
55.625 4.046783
55.630 4.182812
55.635 4.513022
55.640 4.770061
55.645 5.073238
55.650 5.256826
55.655 5.105684
55.660 4.828899
55.665 4.682787
55.670 4.445945
55.675 4.290761
55.680 4.020424
55.685 3.803953
55.690 3.789588
55.695 3.771057
55.700 3.486845
55.705 3.180767
55.710 3.221825
55.715 3.479061
55.720 3.49493
55.725 3.633716
55.730 3.792192
55.735 3.974831
55.740 4.442977
55.745 4.444512
55.750 4.151318
55.755 4.017129
55.760 3.89007
55.765 4.002411
55.770 4.085892
55.775 3.949898
55.780 4.218424
55.785 4.384556
55.790 4.353684
55.795 4.178245
55.800 4.207624
55.805 4.571193
55.810 4.267786
55.815 4.138904
55.820 4.260108
55.825 4.402909
55.830 4.703587
55.835 4.567698
55.840 4.170258
55.845 4.260327
55.850 4.343856
55.855 4.330683
55.860 4.293688
55.865 4.061601
55.870 4.061925
55.875 4.112792
55.880 4.361646
55.885 4.410293
55.890 4.453356
55.895 4.400918
55.900 4.534514
55.905 4.340885
55.910 4.321334
55.915 3.886631
55.920 3.826491
55.925 3.773828
55.930 3.940189
55.935 3.857937
55.940 4.032933
55.945 4.128949
55.950 4.596997
55.955 5.106429
55.960 5.148678
55.965 5.104324
55.970 5.167501
55.975 5.068599
55.980 5.094132
55.985 4.613131
55.990 3.902717
55.995 3.706843
56.000 3.80337
56.005 3.759249
56.010 3.811769
56.015 3.898383
56.020 3.742475
56.025 4.073385
56.030 4.047832
56.035 3.937537
56.040 3.876583
56.045 3.821097
56.050 3.648206
56.055 3.626911
56.060 3.570503
56.065 3.73278
56.070 3.712991
56.075 3.825977
56.080 3.442667
56.085 3.47293
56.090 3.640381
56.095 3.570097
56.100 3.517893
56.105 3.716473
56.110 4.224034
56.115 4.561757
56.120 4.540442
56.125 4.400864
56.130 4.525464
56.135 4.45845
56.140 4.180868
56.145 3.848813
56.150 3.973304
56.155 4.264037
56.160 4.521103
56.165 4.602296
56.170 4.738719
56.175 4.647525
56.180 4.723513
56.185 4.961622
56.190 4.651602
56.195 4.623524
56.200 4.497939
56.205 4.451155
56.210 4.433311
56.215 4.406715
56.220 4.383892
56.225 4.577456
56.230 4.729515
56.235 4.778088
56.240 5.21313
56.245 5.033067
56.250 4.598927
56.255 4.687111
56.260 4.634264
56.265 4.500971
56.270 4.305506
56.275 4.165613
56.280 4.493503
56.285 4.802891
56.290 4.486406
56.295 4.339884
56.300 4.363575
56.305 4.297165
56.310 4.249856
56.315 4.184044
56.320 3.910642
56.325 4.22512
56.330 4.397062
56.335 4.408775
56.340 4.558872
56.345 4.499042
56.350 4.512476
56.355 4.344383
56.360 4.097309
56.365 4.379013
56.370 4.321641
56.375 4.405025
56.380 4.434556
56.385 4.286847
56.390 4.469315
56.395 4.654934
56.400 4.628886
56.405 4.643663
56.410 4.307053
56.415 4.199631
56.420 4.038353
56.425 3.935617
56.430 3.564922
56.435 3.341094
56.440 3.590646
56.445 4.016429
56.450 3.994749
56.455 4.324062
56.460 4.353806
56.465 4.339264
56.470 4.260714
56.475 3.881987
56.480 3.911516
56.485 4.087341
56.490 4.619172
56.495 5.068083
56.500 5.098904
56.505 4.931044
56.510 5.076642
56.515 5.016093
56.520 5.135137
56.525 4.785729
56.530 4.671467
56.535 4.840891
56.540 4.950214
56.545 4.97175
56.550 5.079725
56.555 5.131309
56.560 4.866708
56.565 4.846891
56.570 4.969496
56.575 5.234485
56.580 5.461823
56.585 5.335609
56.590 5.16046
56.595 5.373841
56.600 5.247277
56.605 5.031407
56.610 4.872419
56.615 4.716137
56.620 4.925982
56.625 4.722491
56.630 4.62124
56.635 4.692342
56.640 4.682012
56.645 4.72151
56.650 4.559929
56.655 4.652893
56.660 4.754179
56.665 4.492476
56.670 4.368484
56.675 4.403355
56.680 4.623499
56.685 4.685718
56.690 4.695828
56.695 4.909883
56.700 4.799472
56.705 4.786235
56.710 4.881812
56.715 4.684017
56.720 4.381051
56.725 4.321457
56.730 4.257621
56.735 4.337075
56.740 4.225017
56.745 4.019178
56.750 4.132041
56.755 4.536765
56.760 4.522406
56.765 4.295457
56.770 4.512668
56.775 5.027107
56.780 5.47648
56.785 5.615435
56.790 5.686977
56.795 5.974961
56.800 6.189465
56.805 6.131304
56.810 5.85843
56.815 5.838392
56.820 5.55371
56.825 5.234196
56.830 4.989799
56.835 5.090101
56.840 4.993421
56.845 5.089776
56.850 4.703925
56.855 4.568756
56.860 4.538812
56.865 4.653197
56.870 4.74276
56.875 4.962517
56.880 4.954298
56.885 5.169473
56.890 5.148588
56.895 5.231598
56.900 4.932364
56.905 4.58847
56.910 4.173347
56.915 3.736091
56.920 3.602337
56.925 3.738198
56.930 3.893264
56.935 4.138841
56.940 4.310014
56.945 4.521304
56.950 4.661783
56.955 4.748388
56.960 4.704945
56.965 4.564871
56.970 4.499304
56.975 4.357595
56.980 4.230409
56.985 4.235415
56.990 4.420675
56.995 4.367949
57.000 4.534085
57.005 4.53115
57.010 4.582068
57.015 4.676513
57.020 4.664768
57.025 4.367034
57.030 4.407502
57.035 4.227718
57.040 4.070338
57.045 3.909305
57.050 3.992519
57.055 4.298386
57.060 4.267201
57.065 4.033392
57.070 4.092298
57.075 4.193928
57.080 4.299698
57.085 4.010071
57.090 3.761193
57.095 3.898293
57.100 3.902676
57.105 3.892079
57.110 4.004605
57.115 3.985404
57.120 4.14966
57.125 4.296998
57.130 4.520876
57.135 4.638313
57.140 4.536895
57.145 4.684996
57.150 4.922844
57.155 4.88073
57.160 4.932903
57.165 4.824477
57.170 4.8027
57.175 4.860249
57.180 4.90717
57.185 4.671708
57.190 5.093118
57.195 5.237658
57.200 5.400849
57.205 5.732059
57.210 5.944521
57.215 5.892146
57.220 6.185447
57.225 5.857422
57.230 5.862085
57.235 5.868798
57.240 5.940604
57.245 5.786207
57.250 5.529021
57.255 5.178759
57.260 5.033081
57.265 4.851976
57.270 4.329184
57.275 4.12165
57.280 4.227657
57.285 4.525881
57.290 4.849047
57.295 5.215969
57.300 5.322587
57.305 5.64019
57.310 5.231062
57.315 5.046179
57.320 4.676303
57.325 4.235575
57.330 3.866368
57.335 3.820097
57.340 3.928931
57.345 4.299842
57.350 4.779155
57.355 5.081944
57.360 5.205314
57.365 5.406069
57.370 5.917062
57.375 6.165774
57.380 6.251287
57.385 6.22884
57.390 6.218622
57.395 6.209618
57.400 5.883774
57.405 5.625964
57.410 5.419034
57.415 5.195505
57.420 5.151822
57.425 5.284527
57.430 5.373951
57.435 5.587683
57.440 5.455498
57.445 5.413333
57.450 5.503045
57.455 5.468369
57.460 5.701706
57.465 5.883578
57.470 5.751332
57.475 5.668593
57.480 5.931612
57.485 5.872942
57.490 5.503483
57.495 4.945388
57.500 4.942971
57.505 5.023121
57.510 4.723109
57.515 4.349333
57.520 4.198765
57.525 4.42158
57.530 4.562973
57.535 4.210191
57.540 4.424493
57.545 4.757845
57.550 4.976974
57.555 5.271852
57.560 5.530076
57.565 5.897791
57.570 6.210857
57.575 6.213207
57.580 6.141098
57.585 6.103716
57.590 5.84517
57.595 5.548194
57.600 5.371293
57.605 5.52491
57.610 5.716712
57.615 5.589854
57.620 5.564125
57.625 5.64075
57.630 5.547865
57.635 5.39651
57.640 5.114216
57.645 4.654816
57.650 4.683065
57.655 4.788097
57.660 4.940138
57.665 5.312154
57.670 5.096255
57.675 5.117252
57.680 5.306609
57.685 5.413159
57.690 5.528057
57.695 5.783181
57.700 5.640822
57.705 5.879165
57.710 5.974858
57.715 5.922862
57.720 5.780843
57.725 5.466533
57.730 5.038344
57.735 4.818026
57.740 4.602236
57.745 4.703438
57.750 4.918833
57.755 4.874218
57.760 5.253929
57.765 5.282895
57.770 5.284134
57.775 5.266608
57.780 5.050635
57.785 4.986485
57.790 5.06419
57.795 4.789059
57.800 5.118496
57.805 5.356481
57.810 5.519054
57.815 5.842551
57.820 5.798134
57.825 5.847977
57.830 5.731753
57.835 5.195552
57.840 5.113724
57.845 5.020316
57.850 4.823587
57.855 4.915405
57.860 4.896882
57.865 4.921268
57.870 5.275246
57.875 5.310535
57.880 4.925832
57.885 4.789719
57.890 4.536479
57.895 4.663683
57.900 4.726748
57.905 4.775583
57.910 4.601978
57.915 4.686867
57.920 4.709963
57.925 4.906595
57.930 4.931143
57.935 4.701865
57.940 4.406768
57.945 4.46347
57.950 4.41648
57.955 4.092709
57.960 3.96805
57.965 3.794651
57.970 4.176378
57.975 4.390641
57.980 4.526286
57.985 4.734658
57.990 5.23289
57.995 5.351613
58.000 5.462626
58.005 5.429574
58.010 5.317894
58.015 5.290082
58.020 5.3709
58.025 4.668622
58.030 4.525694
58.035 4.445271
58.040 4.610011
58.045 4.757682
58.050 4.932359
58.055 5.311134
58.060 5.613285
58.065 5.816681
58.070 6.153097
58.075 6.370053
58.080 6.475986
58.085 6.388187
58.090 5.96151
58.095 6.093544
58.100 5.64777
58.105 5.657503
58.110 5.245275
58.115 4.749199
58.120 4.722982
58.125 4.816165
58.130 4.918138
58.135 5.126362
58.140 5.02547
58.145 5.488161
58.150 5.893876
58.155 5.761985
58.160 5.648935
58.165 5.493901
58.170 5.475903
58.175 5.165504
58.180 4.794909
58.185 4.730508
58.190 4.937287
58.195 5.215189
58.200 5.347277
58.205 5.267376
58.210 5.26361
58.215 5.200903
58.220 5.23497
58.225 5.08717
58.230 4.996931
58.235 4.723637
58.240 4.811706
58.245 5.269224
58.250 5.230177
58.255 5.138862
58.260 4.92182
58.265 4.678767
58.270 4.777191
58.275 4.743006
58.280 4.581672
58.285 4.61551
58.290 5.075968
58.295 5.175134
58.300 5.41922
58.305 5.714806
58.310 5.830814
58.315 5.620526
58.320 5.679008
58.325 5.568107
58.330 5.866901
58.335 5.802397
58.340 5.473616
58.345 5.295323
58.350 5.227548
58.355 5.182037
58.360 5.155023
58.365 5.217045
58.370 5.397153
58.375 5.706741
58.380 5.92493
58.385 6.064997
58.390 5.997858
58.395 5.619585
58.400 5.358389
58.405 5.458117
58.410 5.007939
58.415 5.00317
58.420 5.356361
58.425 5.539078
58.430 6.108555
58.435 6.044706
58.440 5.811833
58.445 6.360093
58.450 6.369845
58.455 6.050291
58.460 5.940795
58.465 5.769022
58.470 5.715518
58.475 5.570291
58.480 5.620914
58.485 5.974301
58.490 6.4465
58.495 6.756655
58.500 6.948539
58.505 7.42376
58.510 7.856307
58.515 7.70899
58.520 7.239717
58.525 6.902875
58.530 6.692961
58.535 6.683367
58.540 6.495788
58.545 6.191798
58.550 6.112689
58.555 6.380781
58.560 6.832298
58.565 6.817651
58.570 6.65994
58.575 6.728021
58.580 6.93687
58.585 6.955433
58.590 7.016482
58.595 6.792333
58.600 6.538433
58.605 6.813134
58.610 6.597066
58.615 6.425179
58.620 6.662554
58.625 6.668997
58.630 6.818911
58.635 7.166929
58.640 6.92636
58.645 7.358689
58.650 7.363745
58.655 7.701763
58.660 7.695026
58.665 7.638623
58.670 7.27242
58.675 7.319044
58.680 7.666843
58.685 7.564121
58.690 7.18364
58.695 7.4755
58.700 7.638366
58.705 7.792754
58.710 7.576629
58.715 7.136964
58.720 7.196557
58.725 7.402586
58.730 7.224405
58.735 7.137774
58.740 7.426221
58.745 7.304461
58.750 7.388155
58.755 7.324244
58.760 6.905437
58.765 6.983419
58.770 7.225957
58.775 7.181458
58.780 7.151799
58.785 7.093765
58.790 7.069859
58.795 7.006019
58.800 6.907536
58.805 6.815201
58.810 6.878586
58.815 6.995207
58.820 7.170878
58.825 7.35711
58.830 7.386692
58.835 7.159608
58.840 6.947377
58.845 6.714491
58.850 6.633567
58.855 6.275538
58.860 5.768106
58.865 5.794335
58.870 6.240378
58.875 6.416718
58.880 6.407071
58.885 6.387514
58.890 6.630146
58.895 6.975296
58.900 7.134264
58.905 6.665069
58.910 6.625369
58.915 6.55362
58.920 6.497561
58.925 6.695958
58.930 6.90983
58.935 7.028658
58.940 7.476593
58.945 7.545994
58.950 7.357216
58.955 7.204399
58.960 7.042497
58.965 6.933874
58.970 6.572692
58.975 6.158535
58.980 6.42191
58.985 6.868635
58.990 6.880457
58.995 6.838114
59.000 6.581075
59.005 6.539832
59.010 6.400768
59.015 6.119261
59.020 5.962151
59.025 5.969465
59.030 6.210604
59.035 6.241043
59.040 6.486414
59.045 6.286045
59.050 6.117006
59.055 6.098772
59.060 5.993272
59.065 5.471605
59.070 5.410557
59.075 4.932399
59.080 4.783722
59.085 4.866104
59.090 5.191261
59.095 5.05778
59.100 5.451244
59.105 5.508395
59.110 5.698902
59.115 5.813154
59.120 5.599294
59.125 5.284153
59.130 5.181297
59.135 4.989777
59.140 5.021797
59.145 5.375377
59.150 5.759478
59.155 5.850187
59.160 5.965325
59.165 6.113752
59.170 5.950162
59.175 6.004937
59.180 5.63193
59.185 5.282835
59.190 5.134004
59.195 5.377989
59.200 5.863074
59.205 5.980189
59.210 6.127619
59.215 5.925791
59.220 6.109558
59.225 6.277247
59.230 6.124932
59.235 5.873999
59.240 5.633674
59.245 5.397972
59.250 5.736053
59.255 5.58895
59.260 5.744953
59.265 5.477344
59.270 5.331976
59.275 5.277078
59.280 5.23401
59.285 5.171776
59.290 5.230913
59.295 4.878439
59.300 4.835384
59.305 5.022626
59.310 5.225584
59.315 5.160526
59.320 4.801822
59.325 4.600834
59.330 4.98701
59.335 4.898456
59.340 4.65752
59.345 4.585581
59.350 4.716473
59.355 5.064605
59.360 5.013305
59.365 5.005855
59.370 5.136563
59.375 5.018702
59.380 5.012857
59.385 5.190694
59.390 5.42663
59.395 5.335798
59.400 5.399861
59.405 5.473339
59.410 5.80677
59.415 5.710529
59.420 5.752386
59.425 5.688036
59.430 5.920456
59.435 5.901335
59.440 6.28096
59.445 6.274238
59.450 6.212036
59.455 5.916108
59.460 5.726773
59.465 5.407047
59.470 5.005617
59.475 4.561646
59.480 4.222518
59.485 4.045362
59.490 3.907832
59.495 3.710191
59.500 3.862199
59.505 4.212396
59.510 4.464367
59.515 4.57612
59.520 5.031597
59.525 5.332092
59.530 5.551463
59.535 5.775233
59.540 5.376476
59.545 5.235291
59.550 5.452852
59.555 5.313794
59.560 5.537209
59.565 5.309517
59.570 4.983756
59.575 4.948862
59.580 4.975143
59.585 4.950392
59.590 4.753707
59.595 4.457806
59.600 4.731205
59.605 5.167451
59.610 5.670072
59.615 6.029212
59.620 5.850129
59.625 5.987462
59.630 6.70221
59.635 6.663553
59.640 6.823014
59.645 6.651039
59.650 6.110292
59.655 6.279297
59.660 6.075701
59.665 5.777474
59.670 5.819193
59.675 5.451044
59.680 5.338036
59.685 5.321245
59.690 5.385209
59.695 5.332984
59.700 5.061904
59.705 5.13223
59.710 5.373544
59.715 5.535782
59.720 5.55386
59.725 5.463847
59.730 5.276358
59.735 5.231746
59.740 5.174309
59.745 5.289217
59.750 5.354619
59.755 5.450013
59.760 5.609014
59.765 5.718999
59.770 5.84812
59.775 5.878154
59.780 5.674643
59.785 5.869699
59.790 6.024615
59.795 6.128056
59.800 6.41757
59.805 6.504606
59.810 6.504341
59.815 6.590788
59.820 6.554111
59.825 6.458086
59.830 5.984286
59.835 6.045634
59.840 6.313091
59.845 6.420078
59.850 6.41265
59.855 6.388347
59.860 6.585633
59.865 6.949458
59.870 6.558584
59.875 6.204996
59.880 6.049664
59.885 6.045972
59.890 6.060966
59.895 5.74629
59.900 5.514485
59.905 5.61292
59.910 5.808262
59.915 5.66003
59.920 5.448071
59.925 5.21471
59.930 5.183445
59.935 5.262441
59.940 4.958107
59.945 4.814374
59.950 4.936567
59.955 5.024793
59.960 4.928427
59.965 5.074957
59.970 5.271664
59.975 5.348751
59.980 5.531557
59.985 5.388088
59.990 5.126707
59.995 5.225283
60.000 5.018916
60.005 4.839927
60.010 5.059595
60.015 4.826695
60.020 4.902626
60.025 4.90805
60.030 5.045527
60.035 5.269969
60.040 5.442611
60.045 5.403269
60.050 5.459381
60.055 5.523521
60.060 5.849472
60.065 5.912927
60.070 5.863073
60.075 5.872841
60.080 5.931705
60.085 6.338801
60.090 6.265141
60.095 6.13273
60.100 6.146487
60.105 5.926674
60.110 5.477674
60.115 5.144434
60.120 4.859871
60.125 4.761481
60.130 4.617615
60.135 4.672497
60.140 5.13475
60.145 5.59637
60.150 5.877141
60.155 5.883523
60.160 5.540617
60.165 5.414933
60.170 5.231505
60.175 5.07595
60.180 5.019459
60.185 5.07442
60.190 5.125798
60.195 5.309493
60.200 5.622088
60.205 5.607928
60.210 5.676297
60.215 5.492373
60.220 5.239543
60.225 5.529237
60.230 5.934357
60.235 5.931358
60.240 5.841421
60.245 5.721651
60.250 5.489202
60.255 5.436728
60.260 5.041238
60.265 5.073054
60.270 5.064634
60.275 4.997605
60.280 4.92836
60.285 5.110733
60.290 5.66836
60.295 5.933197
60.300 5.78913
60.305 5.885256
60.310 6.405099
60.315 6.389774
60.320 6.475548
60.325 5.953587
60.330 5.916085
60.335 6.0474
60.340 5.703681
60.345 5.372735
60.350 5.361034
60.355 5.375214
60.360 5.80858
60.365 5.706079
60.370 5.540168
60.375 5.470198
60.380 5.475214
60.385 5.696853
60.390 5.573196
60.395 5.54389
60.400 5.55545
60.405 5.65369
60.410 5.964431
60.415 5.939746
60.420 5.513279
60.425 5.500622
60.430 5.538341
60.435 5.958186
60.440 5.93838
60.445 5.850773
60.450 5.974974
60.455 6.263767
60.460 6.451023
60.465 6.110377
60.470 5.852507
60.475 5.970963
60.480 5.875655
60.485 5.979398
60.490 6.024592
60.495 5.92274
60.500 5.665818
60.505 5.429839
60.510 5.304667
60.515 5.403183
60.520 5.01397
60.525 4.695101
60.530 4.385144
60.535 4.425734
60.540 4.34483
60.545 4.373869
60.550 4.260002
60.555 4.452164
60.560 4.653395
60.565 4.838121
60.570 5.184173
60.575 5.190451
60.580 5.048196
60.585 4.90308
60.590 4.869039
60.595 5.039261
60.600 5.303701
60.605 5.504215
60.610 6.029217
60.615 6.181575
60.620 6.444118
60.625 6.579372
60.630 6.184689
60.635 6.149377
60.640 5.894944
60.645 5.463972
60.650 5.418531
60.655 5.331282
60.660 5.219857
60.665 5.290812
60.670 5.181895
60.675 5.383391
60.680 5.913884
60.685 6.079968
60.690 6.102596
60.695 6.256216
60.700 6.514394
60.705 6.510172
60.710 6.375663
60.715 6.324772
60.720 6.547303
60.725 6.675823
60.730 6.707829
60.735 6.593413
60.740 6.373212
60.745 6.343285
60.750 5.984088
60.755 5.681409
60.760 5.503172
60.765 5.444665
60.770 5.451771
60.775 5.315661
60.780 5.319397
60.785 5.2696
60.790 5.262064
60.795 5.468316
60.800 5.599247
60.805 5.770793
60.810 5.814371
60.815 5.739917
60.820 5.523157
60.825 5.164486
60.830 4.783594
60.835 4.834874
60.840 4.828485
60.845 4.678557
60.850 4.942997
60.855 5.45926
60.860 5.839776
60.865 6.038706
60.870 5.801332
60.875 5.761316
60.880 5.900806
60.885 5.726349
60.890 5.518702
60.895 5.293775
60.900 5.385928
60.905 5.63115
60.910 5.655725
60.915 5.530816
60.920 5.264648
60.925 5.449224
60.930 5.495099
60.935 5.243995
60.940 4.724707
60.945 4.848228
60.950 5.226955
60.955 5.412651
60.960 5.270574
60.965 5.75932
60.970 5.867399
60.975 6.122595
60.980 5.891639
60.985 5.868473
60.990 6.015736
60.995 5.870876
61.000 5.657513
61.005 5.474473
61.010 5.356188
61.015 5.353742
61.020 5.216179
61.025 5.053033
61.030 5.153685
61.035 5.06738
61.040 5.165423
61.045 5.183408
61.050 5.253993
61.055 5.25158
61.060 5.496053
61.065 5.552257
61.070 5.731745
61.075 6.084791
61.080 5.98175
61.085 6.014558
61.090 5.79517
61.095 5.476668
61.100 5.696379
61.105 5.787044
61.110 5.595212
61.115 5.843619
61.120 5.856242
61.125 6.202799
61.130 6.666009
61.135 6.489464
61.140 6.499808
61.145 6.375451
61.150 6.237092
61.155 6.140562
61.160 5.956321
61.165 5.708036
61.170 5.564723
61.175 5.475726
61.180 5.660939
61.185 5.608562
61.190 5.699542
61.195 5.402968
61.200 5.669535
61.205 5.810018
61.210 5.882995
61.215 5.869545
61.220 5.982418
61.225 6.173663
61.230 6.456592
61.235 6.351697
61.240 6.276423
61.245 6.176692
61.250 6.035162
61.255 5.899038
61.260 6.004553
61.265 5.968276
61.270 5.586382
61.275 5.334979
61.280 5.454195
61.285 5.726185
61.290 5.724075
61.295 5.701192
61.300 5.699403
61.305 6.139266
61.310 6.701993
61.315 6.82368
61.320 6.992378
61.325 7.203039
61.330 7.240897
61.335 7.280042
61.340 7.038163
61.345 6.703415
61.350 6.470089
61.355 6.495015
61.360 6.627117
61.365 6.780531
61.370 6.919538
61.375 6.856915
61.380 6.763268
61.385 6.978858
61.390 6.584418
61.395 6.245904
61.400 5.87129
61.405 5.675816
61.410 5.860149
61.415 5.856876
61.420 5.63762
61.425 5.755985
61.430 5.516572
61.435 5.865608
61.440 5.869162
61.445 5.510915
61.450 5.332358
61.455 5.303218
61.460 5.280265
61.465 5.469456
61.470 5.239395
61.475 5.466642
61.480 5.874344
61.485 6.07955
61.490 6.114604
61.495 6.19389
61.500 6.173935
61.505 6.427966
61.510 6.238416
61.515 6.347282
61.520 6.327513
61.525 6.16757
61.530 6.592164
61.535 6.566812
61.540 6.080377
61.545 6.258871
61.550 6.502456
61.555 6.527447
61.560 6.355643
61.565 6.110551
61.570 6.508208
61.575 6.958145
61.580 7.242396
61.585 6.898556
61.590 6.912768
61.595 6.962878
61.600 6.879163
61.605 6.637158
61.610 6.483022
61.615 6.017125
61.620 5.935876
61.625 5.901606
61.630 6.113396
61.635 6.143037
61.640 6.211701
61.645 6.566818
61.650 6.678968
61.655 6.788389
61.660 7.084447
61.665 6.697998
61.670 6.541444
61.675 6.394624
61.680 6.298144
61.685 6.043333
61.690 5.830328
61.695 5.618352
61.700 6.141411
61.705 6.291392
61.710 6.252524
61.715 6.246557
61.720 6.32017
61.725 6.193226
61.730 5.883801
61.735 5.759161
61.740 5.789718
61.745 5.611497
61.750 5.461279
61.755 5.560967
61.760 6.270614
61.765 6.729431
61.770 6.568426
61.775 6.392328
61.780 6.579357
61.785 6.189863
61.790 6.111441
61.795 5.996984
61.800 6.026965
61.805 6.010407
61.810 6.228758
61.815 6.302257
61.820 7.024331
61.825 7.861763
61.830 7.579891
61.835 7.369612
61.840 7.310969
61.845 7.126954
61.850 6.902864
61.855 6.426532
61.860 5.818738
61.865 5.967835
61.870 6.006289
61.875 6.293609
61.880 6.436841
61.885 6.242072
61.890 6.018208
61.895 6.13388
61.900 6.483186
61.905 6.364489
61.910 6.062064
61.915 6.10155
61.920 6.430055
61.925 6.525437
61.930 6.120345
61.935 5.905345
61.940 6.098509
61.945 6.381829
61.950 6.376091
61.955 6.372239
61.960 6.384778
61.965 6.47677
61.970 6.477468
61.975 6.265398
61.980 5.876897
61.985 5.799191
61.990 5.602345
61.995 5.679477
62.000 5.585974
62.005 5.410609
62.010 5.885764
62.015 5.849627
62.020 6.034904
62.025 6.046486
62.030 5.98279
62.035 6.00175
62.040 5.921856
62.045 6.041296
62.050 6.202498
62.055 6.254943
62.060 6.390765
62.065 6.268112
62.070 6.673506
62.075 6.86834
62.080 6.441743
62.085 6.432957
62.090 6.099451
62.095 5.883679
62.100 6.140866
62.105 6.051207
62.110 5.981102
62.115 6.288233
62.120 6.568792
62.125 6.711126
62.130 7.229678
62.135 7.266906
62.140 7.147548
62.145 7.490937
62.150 7.401632
62.155 6.985425
62.160 7.027571
62.165 6.905802
62.170 7.179616
62.175 7.217649
62.180 6.617621
62.185 6.423001
62.190 6.554981
62.195 6.523143
62.200 6.127499
62.205 5.78226
62.210 5.715394
62.215 5.675622
62.220 5.671008
62.225 5.743586
62.230 5.936987
62.235 6.174868
62.240 6.141343
62.245 6.187022
62.250 6.288749
62.255 6.426067
62.260 6.616888
62.265 6.494035
62.270 6.707669
62.275 6.588969
62.280 6.65069
62.285 7.268207
62.290 7.334346
62.295 7.057055
62.300 6.562711
62.305 6.571288
62.310 6.553066
62.315 6.744179
62.320 6.926345
62.325 6.77456
62.330 7.044058
62.335 7.628678
62.340 7.49164
62.345 7.675954
62.350 7.343511
62.355 6.773108
62.360 6.984337
62.365 6.927865
62.370 6.669765
62.375 7.026382
62.380 6.771307
62.385 6.298651
62.390 6.070853
62.395 5.881812
62.400 5.59632
62.405 5.828661
62.410 5.747514
62.415 6.4378
62.420 6.954445
62.425 7.130941
62.430 7.262143
62.435 7.627549
62.440 7.609636
62.445 7.298747
62.450 6.839259
62.455 6.517812
62.460 6.477077
62.465 6.784921
62.470 6.882139
62.475 6.960608
62.480 7.255231
62.485 7.388577
62.490 7.638343
62.495 7.488685
62.500 7.179662
62.505 6.783484
62.510 6.347186
62.515 6.012676
62.520 5.992452
62.525 6.153034
62.530 6.356613
62.535 6.334939
62.540 6.354278
62.545 6.442
62.550 6.970333
62.555 7.096298
62.560 7.013676
62.565 7.006273
62.570 7.12063
62.575 7.063373
62.580 6.983683
62.585 6.974955
62.590 6.829745
62.595 6.460255
62.600 6.565005
62.605 6.620469
62.610 6.593425
62.615 6.562568
62.620 6.067162
62.625 5.943973
62.630 6.202585
62.635 6.165852
62.640 6.050485
62.645 6.24221
62.650 6.275241
62.655 6.574468
62.660 7.20939
62.665 7.184026
62.670 6.732677
62.675 6.732175
62.680 6.974717
62.685 7.089245
62.690 6.845564
62.695 6.069133
62.700 6.429931
62.705 6.711755
62.710 6.801577
62.715 7.0876
62.720 7.04696
62.725 7.315761
62.730 8.132967
62.735 7.972864
62.740 8.168361
62.745 7.786237
62.750 7.382084
62.755 7.39851
62.760 7.227834
62.765 7.015313
62.770 6.777901
62.775 6.556138
62.780 6.430158
62.785 6.272585
62.790 5.984202
62.795 5.729834
62.800 5.58975
62.805 5.648716
62.810 5.644855
62.815 5.859875
62.820 6.101911
62.825 6.316283
62.830 6.500774
62.835 6.422326
62.840 6.512069
62.845 6.686504
62.850 6.836463
62.855 6.55531
62.860 6.671827
62.865 6.36209
62.870 6.318744
62.875 6.370547
62.880 6.374178
62.885 6.612186
62.890 6.813894
62.895 6.732003
62.900 6.892635
62.905 6.968722
62.910 7.184052
62.915 7.217312
62.920 7.157468
62.925 7.165889
62.930 6.917362
62.935 6.872606
62.940 6.694049
62.945 6.381953
62.950 6.012108
62.955 5.456497
62.960 5.336143
62.965 5.425222
62.970 5.874251
62.975 6.229657
62.980 6.360977
62.985 6.417815
62.990 7.017861
62.995 7.21974
63.000 7.389915
63.005 7.130874
63.010 6.734059
63.015 6.841362
63.020 6.953192
63.025 6.76052
63.030 6.466052
63.035 6.171827
63.040 5.829684
63.045 5.86578
63.050 5.685817
63.055 5.525337
63.060 5.164853
63.065 5.515857
63.070 5.710037
63.075 5.751189
63.080 6.004889
63.085 5.707402
63.090 5.670276
63.095 5.895818
63.100 5.876898
63.105 5.828778
63.110 6.069283
63.115 6.451997
63.120 6.741005
63.125 7.00247
63.130 7.251043
63.135 7.34258
63.140 7.218307
63.145 6.931267
63.150 6.390018
63.155 6.321601
63.160 6.160006
63.165 5.618901
63.170 5.125973
63.175 5.444253
63.180 5.764863
63.185 5.767023
63.190 5.839243
63.195 6.060737
63.200 6.355811
63.205 6.607449
63.210 6.343767
63.215 6.456803
63.220 6.5363
63.225 6.46719
63.230 6.749195
63.235 6.583764
63.240 6.523622
63.245 6.830692
63.250 6.882057
63.255 7.207302
63.260 7.037518
63.265 6.644455
63.270 7.083929
63.275 7.542909
63.280 7.646852
63.285 7.712485
63.290 8.004948
63.295 8.463353
63.300 8.491447
63.305 7.912068
63.310 7.406526
63.315 7.722684
63.320 7.637181
63.325 7.414721
63.330 7.407705
63.335 7.522828
63.340 7.699201
63.345 7.782046
63.350 7.442688
63.355 7.626578
63.360 7.277976
63.365 7.042647
63.370 7.025024
63.375 7.054102
63.380 7.090459
63.385 6.917933
63.390 6.616506
63.395 6.582531
63.400 6.510165
63.405 6.326102
63.410 6.182958
63.415 6.187408
63.420 6.378662
63.425 6.230293
63.430 6.554039
63.435 6.940869
63.440 7.335475
63.445 7.37956
63.450 7.214051
63.455 7.514038
63.460 7.883109
63.465 7.777407
63.470 7.598274
63.475 7.352869
63.480 7.128431
63.485 7.058329
63.490 6.512398
63.495 6.102722
63.500 6.114157
63.505 6.277565
63.510 6.319215
63.515 6.808449
63.520 7.02799
63.525 7.206767
63.530 7.270746
63.535 6.994132
63.540 6.629555
63.545 6.500296
63.550 6.115429
63.555 5.964361
63.560 6.094284
63.565 6.603466
63.570 6.794628
63.575 7.11355
63.580 7.451349
63.585 7.535333
63.590 7.77436
63.595 7.541482
63.600 7.307083
63.605 7.18907
63.610 6.916622
63.615 6.931189
63.620 6.965815
63.625 6.910247
63.630 6.928198
63.635 7.194306
63.640 7.453362
63.645 7.116148
63.650 7.065823
63.655 7.15768
63.660 6.95932
63.665 6.711088
63.670 6.107806
63.675 5.946572
63.680 6.400733
63.685 6.458937
63.690 6.500034
63.695 6.44928
63.700 6.043629
63.705 5.901299
63.710 5.554797
63.715 5.603313
63.720 5.332083
63.725 5.143842
63.730 5.055551
63.735 6.020053
63.740 6.267824
63.745 6.47727
63.750 6.652706
63.755 6.958192
63.760 7.002312
63.765 7.006922
63.770 6.415766
63.775 6.581879
63.780 6.571687
63.785 5.918262
63.790 5.827734
63.795 6.0222
63.800 6.516101
63.805 6.61152
63.810 6.556474
63.815 6.599358
63.820 6.849412
63.825 6.802629
63.830 6.632463
63.835 6.318827
63.840 6.273601
63.845 6.611035
63.850 6.579539
63.855 6.665549
63.860 6.787148
63.865 6.774148
63.870 7.004608
63.875 7.359502
63.880 7.269465
63.885 7.319873
63.890 7.187545
63.895 7.172005
63.900 7.134422
63.905 6.647748
63.910 6.249955
63.915 6.064954
63.920 6.203556
63.925 6.092628
63.930 5.939146
63.935 6.130188
63.940 6.073516
63.945 5.852134
63.950 5.946474
63.955 6.203449
63.960 6.505144
63.965 6.560939
63.970 6.222249
63.975 6.905114
63.980 7.623257
63.985 7.641106
63.990 7.74531
63.995 7.755254
64.000 8.164039
64.005 8.490438
64.010 8.086436
64.015 7.562376
64.020 7.375026
64.025 7.090021
64.030 7.249041
64.035 7.388966
64.040 7.40916
64.045 7.871425
64.050 8.458691
64.055 8.661714
64.060 8.690949
64.065 8.339464
64.070 8.265956
64.075 8.262886
64.080 7.914145
64.085 7.692205
64.090 7.560658
64.095 7.527914
64.100 7.744399
64.105 7.527871
64.110 7.465359
64.115 7.452866
64.120 7.333009
64.125 7.511934
64.130 7.429428
64.135 7.684646
64.140 7.684316
64.145 7.630284
64.150 7.906435
64.155 8.180648
64.160 8.244253
64.165 8.426658
64.170 8.377872
64.175 8.715281
64.180 8.586122
64.185 8.170045
64.190 8.241484
64.195 8.323722
64.200 8.084617
64.205 7.720737
64.210 7.544967
64.215 7.906378
64.220 8.569803
64.225 8.408128
64.230 8.064387
64.235 8.014019
64.240 8.255036
64.245 8.531061
64.250 8.480378
64.255 7.88263
64.260 7.637557
64.265 7.812879
64.270 8.517417
64.275 8.969839
64.280 9.078504
64.285 9.377429
64.290 9.760045
64.295 9.940146
64.300 10.047772
64.305 9.692305
64.310 9.114472
64.315 8.843241
64.320 8.568047
64.325 8.680627
64.330 8.855768
64.335 8.77524
64.340 8.630948
64.345 8.916353
64.350 9.799092
64.355 10.239801
64.360 10.531255
64.365 10.977617
64.370 11.054334
64.375 11.371881
64.380 11.840333
64.385 11.699048
64.390 11.71524
64.395 11.508118
64.400 11.372783
64.405 12.344778
64.410 12.733403
64.415 12.210309
64.420 12.020893
64.425 12.361236
64.430 12.229046
64.435 11.809613
64.440 11.588799
64.445 11.596074
64.450 11.920082
64.455 11.490615
64.460 11.240708
64.465 11.964085
64.470 12.702697
64.475 12.682846
64.480 11.897589
64.485 11.576602
64.490 12.250086
64.495 12.308344
64.500 12.1712
64.505 11.685328
64.510 11.326553
64.515 11.917497
64.520 12.615067
64.525 12.847367
64.530 13.315845
64.535 13.31841
64.540 13.558937
64.545 13.675549
64.550 13.371618
64.555 12.705405
64.560 12.04305
64.565 11.456063
64.570 10.84466
64.575 10.572906
64.580 10.429203
64.585 10.478329
64.590 10.15992
64.595 9.911508
64.600 10.083809
64.605 10.083487
64.610 9.883096
64.615 9.810299
64.620 10.015143
64.625 10.27807
64.630 10.365796
64.635 10.150199
64.640 9.974167
64.645 9.689158
64.650 9.421462
64.655 9.175308
64.660 8.867231
64.665 8.327372
64.670 8.048139
64.675 8.106585
64.680 8.336201
64.685 8.222276
64.690 8.169431
64.695 8.422627
64.700 8.540415
64.705 8.828053
64.710 9.060886
64.715 8.769617
64.720 8.786074
64.725 8.343654
64.730 8.201753
64.735 8.142751
64.740 7.704792
64.745 7.667649
64.750 7.73908
64.755 7.665137
64.760 7.52597
64.765 7.692664
64.770 7.970073
64.775 8.234999
64.780 8.007108
64.785 8.610482
64.790 8.69194
64.795 8.859169
64.800 8.788731
64.805 8.505745
64.810 8.399668
64.815 8.449088
64.820 7.879017
64.825 8.236289
64.830 8.189989
64.835 8.235267
64.840 8.057253
64.845 7.734187
64.850 7.476477
64.855 7.427362
64.860 6.996182
64.865 6.945272
64.870 6.832851
64.875 7.095976
64.880 7.374481
64.885 7.626066
64.890 7.824508
64.895 7.972983
64.900 8.000315
64.905 8.133143
64.910 7.982023
64.915 8.352346
64.920 8.621496
64.925 8.653476
64.930 8.776212
64.935 9.03298
64.940 8.892152
64.945 8.690846
64.950 8.337729
64.955 8.382642
64.960 8.383149
64.965 8.306148
64.970 8.610764
64.975 8.914867
64.980 9.455688
64.985 9.600757
64.990 9.341895
64.995 9.449607
65.000 9.770435
65.005 9.433396
65.010 9.662926
65.015 9.866592
65.020 10.080301
65.025 9.628255
65.030 9.356033
65.035 9.086006
65.040 9.259072
65.045 8.893294
65.050 8.513703
65.055 8.669594
65.060 9.096715
65.065 9.045926
65.070 9.278901
65.075 8.847761
65.080 8.811436
65.085 8.604579
65.090 8.687121
65.095 9.292645
65.100 9.757133
65.105 9.758652
65.110 10.022079
65.115 9.818487
65.120 9.924457
65.125 9.862134
65.130 9.895328
65.135 10.21267
65.140 10.169015
65.145 9.872059
65.150 10.142559
65.155 10.493166
65.160 10.475965
65.165 9.96989
65.170 9.663365
65.175 9.973044
65.180 10.367724
65.185 10.215037
65.190 10.61974
65.195 10.838608
65.200 10.981744
65.205 10.652434
65.210 10.434761
65.215 10.398597
65.220 10.397785
65.225 9.993978
65.230 9.55641
65.235 9.827325
65.240 10.320356
65.245 10.425508
65.250 10.247087
65.255 10.139853
65.260 9.844512
65.265 10.010504
65.270 9.712749
65.275 9.663302
65.280 9.884323
65.285 10.413968
65.290 10.522586
65.295 10.515271
65.300 10.144986
65.305 10.405259
65.310 10.345776
65.315 9.827497
65.320 9.273769
65.325 9.403676
65.330 9.856327
65.335 10.217511
65.340 10.210991
65.345 10.414491
65.350 10.686055
65.355 11.385036
65.360 11.538369
65.365 11.056129
65.370 11.167881
65.375 10.98915
65.380 11.126043
65.385 11.251034
65.390 10.862495
65.395 10.515133
65.400 10.843216
65.405 11.031459
65.410 11.198499
65.415 11.099161
65.420 11.054169
65.425 11.390542
65.430 11.226653
65.435 10.904641
65.440 10.534954
65.445 10.127559
65.450 9.995367
65.455 9.883226
65.460 9.495576
65.465 9.918658
65.470 10.10195
65.475 10.348231
65.480 10.530874
65.485 11.332003
65.490 11.84205
65.495 12.310885
65.500 12.326342
65.505 12.449248
65.510 12.719853
65.515 12.451135
65.520 12.163536
65.525 11.863256
65.530 11.762752
65.535 11.748759
65.540 11.474154
65.545 11.188659
65.550 11.101579
65.555 10.574012
65.560 10.383654
65.565 10.137866
65.570 10.077547
65.575 10.258233
65.580 10.377599
65.585 10.85192
65.590 10.871734
65.595 10.931225
65.600 10.571199
65.605 10.386339
65.610 10.473182
65.615 10.734761
65.620 10.493868
65.625 10.466426
65.630 10.121217
65.635 10.59635
65.640 10.602976
65.645 10.984056
65.650 10.973832
65.655 10.965575
65.660 10.805685
65.665 11.015762
65.670 10.981692
65.675 11.244944
65.680 10.550741
65.685 9.698903
65.690 9.491027
65.695 9.733325
65.700 9.571875
65.705 9.162511
65.710 9.035617
65.715 9.247754
65.720 9.900492
65.725 10.204906
65.730 10.010218
65.735 10.027989
65.740 9.961119
65.745 9.465541
65.750 9.013622
65.755 8.245481
65.760 7.86054
65.765 8.246516
65.770 8.664074
65.775 8.726937
65.780 8.912457
65.785 8.891685
65.790 8.971756
65.795 8.953329
65.800 8.533896
65.805 8.27977
65.810 8.325017
65.815 8.299827
65.820 8.307626
65.825 8.419181
65.830 8.291254
65.835 8.016475
65.840 7.958181
65.845 8.006465
65.850 8.279428
65.855 8.210568
65.860 8.1511
65.865 8.478589
65.870 8.975153
65.875 9.401417
65.880 9.520066
65.885 9.388855
65.890 9.272181
65.895 9.299817
65.900 8.764041
65.905 8.473831
65.910 8.112653
65.915 8.012339
65.920 7.878698
65.925 7.910958
65.930 7.906227
65.935 7.985976
65.940 7.868366
65.945 7.760278
65.950 7.449853
65.955 7.331904
65.960 7.474066
65.965 7.458841
65.970 7.56712
65.975 7.885561
65.980 7.943118
65.985 7.89145
65.990 8.052894
65.995 8.121018
66.000 8.173495
66.005 8.090217
66.010 7.716598
66.015 7.453399
66.020 7.630271
66.025 7.798252
66.030 7.541148
66.035 7.362638
66.040 7.694495
66.045 8.169848
66.050 8.212152
66.055 8.012795
66.060 8.161736
66.065 8.323282
66.070 8.262653
66.075 8.381505
66.080 7.600798
66.085 7.573637
66.090 7.494725
66.095 6.90834
66.100 7.294298
66.105 7.379737
66.110 7.014109
66.115 7.459391
66.120 7.88216
66.125 8.130819
66.130 8.153311
66.135 7.800059
66.140 8.128341
66.145 8.250282
66.150 8.136509
66.155 8.031698
66.160 8.069773
66.165 8.047486
66.170 8.204174
66.175 8.180638
66.180 8.004466
66.185 7.824406
66.190 7.66328
66.195 8.011395
66.200 8.286652
66.205 8.101398
66.210 7.940883
66.215 8.364456
66.220 8.462074
66.225 8.62563
66.230 8.267216
66.235 8.218419
66.240 8.085417
66.245 8.22066
66.250 8.286694
66.255 8.352793
66.260 8.198643
66.265 8.135409
66.270 7.638364
66.275 7.413203
66.280 7.156192
66.285 6.88579
66.290 6.695169
66.295 6.851302
66.300 6.907657
66.305 7.013074
66.310 6.752585
66.315 6.67777
66.320 6.845042
66.325 6.84295
66.330 6.569434
66.335 6.740442
66.340 7.262989
66.345 7.459506
66.350 7.31348
66.355 7.067297
66.360 7.395256
66.365 7.376383
66.370 7.377585
66.375 7.379486
66.380 7.975592
66.385 8.364247
66.390 8.116208
66.395 8.056667
66.400 8.243183
66.405 8.44056
66.410 8.419823
66.415 8.186289
66.420 8.044158
66.425 8.259379
66.430 8.367359
66.435 8.226973
66.440 8.125949
66.445 7.815292
66.450 7.870726
66.455 7.88055
66.460 7.488103
66.465 7.061814
66.470 6.950149
66.475 6.944593
66.480 7.238133
66.485 6.958476
66.490 7.144909
66.495 7.730624
66.500 8.127914
66.505 8.14436
66.510 7.609569
66.515 7.13528
66.520 7.030306
66.525 6.92536
66.530 6.711534
66.535 6.373971
66.540 6.42699
66.545 6.695981
66.550 6.737524
66.555 7.009807
66.560 6.856208
66.565 6.750246
66.570 6.750387
66.575 6.525523
66.580 6.406394
66.585 6.959866
66.590 7.14463
66.595 7.236396
66.600 7.058207
66.605 7.104084
66.610 7.315606
66.615 7.420025
66.620 6.725018
66.625 6.545406
66.630 6.475906
66.635 6.657591
66.640 6.799454
66.645 6.53767
66.650 6.367553
66.655 6.42014
66.660 6.315175
66.665 6.457822
66.670 6.301962
66.675 6.223271
66.680 6.549778
66.685 6.908963
66.690 6.792645
66.695 6.584084
66.700 6.678702
66.705 7.129821
66.710 6.996737
66.715 7.234651
66.720 7.389045
66.725 7.48819
66.730 7.538609
66.735 7.473236
66.740 7.234282
66.745 7.208016
66.750 6.671164
66.755 6.283474
66.760 6.650504
66.765 6.780095
66.770 6.78158
66.775 6.972227
66.780 7.28971
66.785 7.671423
66.790 7.806596
66.795 7.85259
66.800 7.736396
66.805 7.795453
66.810 7.363082
66.815 6.753422
66.820 6.480693
66.825 6.901013
66.830 6.855842
66.835 6.959844
66.840 7.043133
66.845 7.53801
66.850 7.862348
66.855 8.081826
66.860 7.66982
66.865 7.705172
66.870 7.798446
66.875 7.536982
66.880 7.506506
66.885 7.451154
66.890 7.297479
66.895 7.374878
66.900 7.340484
66.905 7.496202
66.910 7.540777
66.915 7.521676
66.920 7.490144
66.925 7.576888
66.930 7.154944
66.935 6.654395
66.940 6.428115
66.945 6.2887
66.950 6.161071
66.955 6.122128
66.960 6.277213
66.965 6.902205
66.970 7.481327
66.975 7.546418
66.980 7.670841
66.985 7.640653
66.990 7.82452
66.995 7.662296
67.000 7.536349
67.005 7.423898
67.010 7.158534
67.015 7.353537
67.020 7.503834
67.025 7.640104
67.030 7.474408
67.035 7.042702
67.040 6.980643
67.045 7.160501
67.050 7.107614
67.055 7.226123
67.060 7.343101
67.065 8.059941
67.070 8.381814
67.075 8.446597
67.080 8.641978
67.085 8.542534
67.090 8.205158
67.095 7.790919
67.100 7.349576
67.105 7.192187
67.110 7.032943
67.115 6.711788
67.120 6.69117
67.125 6.483451
67.130 6.621535
67.135 7.031197
67.140 7.309487
67.145 7.271664
67.150 7.359132
67.155 7.25891
67.160 7.537601
67.165 7.485344
67.170 7.135846
67.175 7.148782
67.180 7.239913
67.185 7.372094
67.190 7.51598
67.195 8.001545
67.200 7.866712
67.205 7.997107
67.210 8.074165
67.215 8.408804
67.220 8.465591
67.225 8.409508
67.230 8.084797
67.235 8.199958
67.240 7.980433
67.245 7.451679
67.250 6.962959
67.255 6.875102
67.260 6.831655
67.265 6.800813
67.270 6.60504
67.275 6.631045
67.280 6.845035
67.285 7.012403
67.290 6.792787
67.295 6.329839
67.300 6.342407
67.305 6.298888
67.310 6.442267
67.315 6.429095
67.320 6.340175
67.325 6.73744
67.330 7.014687
67.335 7.030538
67.340 7.141667
67.345 6.900212
67.350 6.878439
67.355 7.17116
67.360 7.484344
67.365 7.872395
67.370 8.193304
67.375 7.930816
67.380 7.637443
67.385 7.640358
67.390 7.183189
67.395 6.464759
67.400 6.055545
67.405 6.099054
67.410 6.760481
67.415 7.132971
67.420 7.24789
67.425 7.414349
67.430 7.589333
67.435 7.577911
67.440 7.321842
67.445 7.017081
67.450 7.188764
67.455 7.156276
67.460 7.142834
67.465 7.640928
67.470 7.795762
67.475 7.633389
67.480 7.650381
67.485 7.591331
67.490 7.631598
67.495 7.549966
67.500 7.437001
67.505 7.431764
67.510 7.54334
67.515 7.45671
67.520 7.547349
67.525 7.254845
67.530 6.875531
67.535 6.316129
67.540 6.213891
67.545 6.115708
67.550 6.121927
67.555 6.133696
67.560 6.629552
67.565 7.388421
67.570 7.531178
67.575 7.791275
67.580 8.096925
67.585 7.737007
67.590 7.447744
67.595 7.001875
67.600 6.553049
67.605 7.070448
67.610 6.959789
67.615 6.94588
67.620 7.476067
67.625 7.895049
67.630 8.579294
67.635 8.469281
67.640 8.09477
67.645 7.811118
67.650 7.585375
67.655 7.262705
67.660 6.851815
67.665 7.093995
67.670 7.414557
67.675 7.385818
67.680 7.730872
67.685 7.907303
67.690 8.100976
67.695 8.224793
67.700 7.886159
67.705 7.84521
67.710 7.942641
67.715 7.955854
67.720 7.761334
67.725 7.703401
67.730 7.633287
67.735 7.95805
67.740 8.111468
67.745 8.139598
67.750 8.132091
67.755 7.97212
67.760 8.020421
67.765 7.524225
67.770 7.200619
67.775 7.029114
67.780 6.734019
67.785 6.653747
67.790 6.823009
67.795 6.732987
67.800 7.16515
67.805 7.086052
67.810 6.710106
67.815 6.996441
67.820 7.042026
67.825 7.194372
67.830 7.16558
67.835 6.813025
67.840 7.149337
67.845 7.136925
67.850 6.905954
67.855 6.472541
67.860 6.33
67.865 6.505962
67.870 7.02632
67.875 7.233049
67.880 7.579803
67.885 7.834701
67.890 7.990832
67.895 7.885077
67.900 7.841497
67.905 7.33447
67.910 7.090106
67.915 7.005023
67.920 6.926531
67.925 7.327114
67.930 8.062261
67.935 8.161302
67.940 8.356831
67.945 8.290168
67.950 8.217091
67.955 8.174193
67.960 8.169792
67.965 7.726016
67.970 7.796834
67.975 7.982321
67.980 8.306523
67.985 8.214603
67.990 8.016101
67.995 7.581768
68.000 7.263296
68.005 6.952219
68.010 6.436788
68.015 6.514049
68.020 6.89194
68.025 7.121572
68.030 7.16076
68.035 7.348502
68.040 7.482535
68.045 7.812569
68.050 7.512558
68.055 7.467111
68.060 7.401365
68.065 7.644173
68.070 7.921687
68.075 7.94413
68.080 8.057975
68.085 8.371255
68.090 8.451179
68.095 8.40645
68.100 8.061143
68.105 7.646585
68.110 7.683985
68.115 7.511889
68.120 7.205739
68.125 7.006324
68.130 6.974945
68.135 6.932875
68.140 6.841838
68.145 6.482925
68.150 6.41499
68.155 6.33567
68.160 6.38603
68.165 6.551923
68.170 6.821137
68.175 7.518527
68.180 7.89265
68.185 7.797242
68.190 7.970712
68.195 8.285728
68.200 8.19875
68.205 8.20516
68.210 7.86251
68.215 8.052279
68.220 8.313635
68.225 8.55515
68.230 8.210831
68.235 8.418619
68.240 8.522458
68.245 8.872339
68.250 9.157004
68.255 8.959718
68.260 8.576228
68.265 8.656177
68.270 8.731169
68.275 8.44774
68.280 8.090428
68.285 7.700626
68.290 7.506612
68.295 7.720563
68.300 7.787858
68.305 7.799529
68.310 7.983736
68.315 8.279032
68.320 8.432053
68.325 8.431654
68.330 8.142212
68.335 8.109438
68.340 8.34669
68.345 8.639544
68.350 8.605
68.355 8.3297
68.360 8.690639
68.365 8.892289
68.370 9.091898
68.375 8.875474
68.380 8.359003
68.385 8.167521
68.390 8.496016
68.395 8.308989
68.400 8.14924
68.405 8.193255
68.410 8.218174
68.415 8.768628
68.420 8.865617
68.425 9.421904
68.430 9.910841
68.435 10.110571
68.440 9.882962
68.445 9.960097
68.450 9.887225
68.455 10.027026
68.460 9.654971
68.465 9.415792
68.470 8.994713
68.475 8.775258
68.480 8.346867
68.485 8.380681
68.490 8.193953
68.495 8.057858
68.500 7.980794
68.505 8.516518
68.510 9.045843
68.515 9.112893
68.520 8.746119
68.525 8.844023
68.530 9.17369
68.535 9.629477
68.540 9.604999
68.545 9.661035
68.550 9.647965
68.555 9.920436
68.560 10.04544
68.565 9.634587
68.570 9.717037
68.575 9.436298
68.580 9.26973
68.585 9.851011
68.590 9.943763
68.595 9.785269
68.600 10.095364
68.605 9.601334
68.610 9.856626
68.615 9.834697
68.620 9.439049
68.625 9.171083
68.630 9.4136
68.635 9.407349
68.640 9.471542
68.645 9.044434
68.650 9.1711
68.655 9.221394
68.660 9.550946
68.665 9.690865
68.670 9.804846
68.675 10.22851
68.680 10.615821
68.685 10.85226
68.690 11.049052
68.695 11.08949
68.700 11.333959
68.705 11.635861
68.710 11.660336
68.715 11.893784
68.720 12.020065
68.725 12.592918
68.730 12.460645
68.735 12.136819
68.740 12.015353
68.745 12.129084
68.750 12.06776
68.755 11.71586
68.760 11.817552
68.765 11.741996
68.770 11.429627
68.775 11.423173
68.780 11.34119
68.785 11.34034
68.790 11.288427
68.795 11.171738
68.800 11.506702
68.805 11.648498
68.810 11.205682
68.815 10.954161
68.820 10.52938
68.825 10.790938
68.830 10.997211
68.835 11.115971
68.840 11.008754
68.845 10.94669
68.850 10.790852
68.855 11.037296
68.860 10.979321
68.865 10.206649
68.870 10.100086
68.875 10.200201
68.880 10.590072
68.885 10.795818
68.890 10.445256
68.895 10.080748
68.900 10.095376
68.905 10.516255
68.910 10.744036
68.915 10.690436
68.920 10.607085
68.925 10.830956
68.930 11.160593
68.935 10.642445
68.940 10.168659
68.945 9.785083
68.950 9.608576
68.955 9.679285
68.960 9.525955
68.965 9.033257
68.970 9.099645
68.975 8.999881
68.980 9.25877
68.985 8.923962
68.990 8.909613
68.995 8.705458
69.000 8.653546
69.005 8.734866
69.010 8.621706
69.015 8.423797
69.020 8.680948
69.025 8.865254
69.030 8.917066
69.035 9.279693
69.040 9.146259
69.045 9.356768
69.050 9.357775
69.055 9.172084
69.060 8.910296
69.065 9.263933
69.070 8.961753
69.075 9.165041
69.080 9.329756
69.085 9.598927
69.090 9.763953
69.095 9.843272
69.100 9.573342
69.105 9.744307
69.110 9.858985
69.115 9.347481
69.120 9.062972
69.125 9.097485
69.130 9.202547
69.135 8.928925
69.140 8.919503
69.145 8.808632
69.150 8.697881
69.155 9.011189
69.160 8.875973
69.165 8.840365
69.170 8.975056
69.175 8.898372
69.180 8.832158
69.185 8.891067
69.190 8.429643
69.195 8.218058
69.200 8.175055
69.205 8.432916
69.210 8.348105
69.215 8.409346
69.220 7.949125
69.225 7.947263
69.230 8.101863
69.235 8.316086
69.240 7.878838
69.245 7.579939
69.250 7.906465
69.255 8.54007
69.260 8.425979
69.265 8.308415
69.270 8.358402
69.275 8.723657
69.280 8.856297
69.285 8.443297
69.290 8.240322
69.295 8.184153
69.300 8.408557
69.305 8.173242
69.310 8.345883
69.315 8.276394
69.320 8.375146
69.325 8.253564
69.330 7.996559
69.335 7.553163
69.340 7.515757
69.345 6.982513
69.350 7.095762
69.355 7.2634
69.360 7.846752
69.365 7.815467
69.370 7.941569
69.375 8.201629
69.380 8.444269
69.385 8.19153
69.390 8.274855
69.395 8.081097
69.400 7.991289
69.405 7.560469
69.410 7.284428
69.415 7.189444
69.420 6.980621
69.425 6.789781
69.430 6.827224
69.435 7.533329
69.440 7.827991
69.445 7.749682
69.450 7.773088
69.455 7.919718
69.460 7.579112
69.465 7.526078
69.470 7.144854
69.475 7.519847
69.480 7.53139
69.485 7.849864
69.490 8.205946
69.495 8.328835
69.500 8.209703
69.505 8.055478
69.510 7.883192
69.515 7.749083
69.520 7.052832
69.525 6.578695
69.530 6.58021
69.535 6.594719
69.540 6.730216
69.545 6.799569
69.550 6.967546
69.555 7.307641
69.560 7.703917
69.565 7.677875
69.570 8.064181
69.575 8.372981
69.580 8.344532
69.585 8.720588
69.590 9.317104
69.595 9.800748
69.600 9.778024
69.605 9.463363
69.610 9.184375
69.615 9.013253
69.620 8.595053
69.625 8.229702
69.630 7.887469
69.635 8.291419
69.640 8.496615
69.645 8.732022
69.650 8.881793
69.655 8.658257
69.660 8.237689
69.665 7.967726
69.670 7.819767
69.675 7.707798
69.680 7.390541
69.685 7.332331
69.690 7.252211
69.695 7.541016
69.700 7.583178
69.705 7.237945
69.710 7.218567
69.715 7.102081
69.720 7.264587
69.725 7.51317
69.730 7.476414
69.735 8.173566
69.740 8.5942
69.745 8.504813
69.750 8.413743
69.755 8.131879
69.760 8.256681
69.765 8.252394
69.770 7.735459
69.775 7.655611
69.780 7.8661
69.785 8.090348
69.790 8.117031
69.795 7.889487
69.800 7.78338
69.805 7.554167
69.810 7.251239
69.815 7.451081
69.820 7.779541
69.825 8.123288
69.830 8.533678
69.835 8.942945
69.840 9.274989
69.845 9.392507
69.850 9.148061
69.855 8.963883
69.860 8.596939
69.865 8.243886
69.870 7.648282
69.875 7.896322
69.880 7.756546
69.885 7.729342
69.890 7.58867
69.895 7.786085
69.900 7.663932
69.905 7.87896
69.910 7.609999
69.915 7.677594
69.920 7.896163
69.925 7.780085
69.930 7.44711
69.935 7.408147
69.940 7.160681
69.945 7.509947
69.950 7.560077
69.955 7.447865
69.960 7.498141
69.965 7.506849
69.970 7.345608
69.975 7.255911
69.980 7.4674
69.985 7.169683
69.990 7.148828
69.995 7.154309
70.000 7.371464
70.005 7.402237
70.010 7.064381
70.015 6.875215
70.020 6.978978
70.025 6.986121
70.030 7.148749
70.035 7.234732
70.040 7.354859
70.045 7.552704
70.050 7.277332
70.055 7.5939
70.060 7.584639
70.065 7.50604
70.070 7.743869
70.075 7.890184
70.080 8.142384
70.085 8.161357
70.090 8.165489
70.095 7.82116
70.100 7.403471
70.105 7.096189
70.110 6.974251
70.115 7.231938
70.120 7.514808
70.125 7.389966
70.130 7.642051
70.135 7.980604
70.140 8.133011
70.145 8.251231
70.150 7.934373
70.155 7.870646
70.160 8.092216
70.165 8.139076
70.170 7.824768
70.175 7.282671
70.180 7.129592
70.185 7.026097
70.190 6.653565
70.195 6.35567
70.200 6.340122
70.205 6.653636
70.210 6.904792
70.215 6.802795
70.220 6.877608
70.225 6.855381
70.230 7.198453
70.235 7.580336
70.240 8.222198
70.245 8.496384
70.250 8.573052
70.255 8.513355
70.260 8.404494
70.265 8.211524
70.270 7.759528
70.275 7.20728
70.280 6.953137
70.285 6.995636
70.290 7.583828
70.295 7.804906
70.300 7.658647
70.305 7.56434
70.310 7.658164
70.315 7.808721
70.320 7.847903
70.325 7.433176
70.330 7.370853
70.335 7.552775
70.340 8.049558
70.345 8.244709
70.350 8.215941
70.355 8.201351
70.360 8.524992
70.365 8.309766
70.370 8.071074
70.375 7.748785
70.380 7.75807
70.385 7.758001
70.390 7.524258
70.395 7.288806
70.400 7.478546
70.405 7.462102
70.410 7.237376
70.415 7.021682
70.420 6.959228
70.425 6.788468
70.430 7.06927
70.435 7.154464
70.440 7.248899
70.445 7.272473
70.450 7.724262
70.455 8.241718
70.460 8.827322
70.465 8.831681
70.470 8.788701
70.475 8.494315
70.480 8.334751
70.485 7.963623
70.490 7.402617
70.495 7.300462
70.500 7.553371
70.505 7.645417
70.510 8.072124
70.515 8.486795
70.520 8.957367
70.525 9.072052
70.530 8.918466
70.535 8.816448
70.540 8.853857
70.545 8.590212
70.550 7.926705
70.555 7.550632
70.560 7.414513
70.565 7.470935
70.570 7.205461
70.575 7.134788
70.580 7.907638
70.585 7.799835
70.590 8.05123
70.595 8.029117
70.600 7.929214
70.605 8.181848
70.610 8.006957
70.615 7.523416
70.620 7.639901
70.625 7.711254
70.630 7.646962
70.635 7.676772
70.640 7.75945
70.645 7.805638
70.650 8.186297
70.655 8.308329
70.660 8.384624
70.665 8.544202
70.670 8.306903
70.675 8.062371
70.680 7.710356
70.685 7.187032
70.690 7.382336
70.695 7.156744
70.700 7.034892
70.705 7.020431
70.710 7.286833
70.715 7.6538
70.720 7.709338
70.725 7.790483
70.730 7.712783
70.735 7.540861
70.740 7.696437
70.745 7.756943
70.750 7.476874
70.755 7.473539
70.760 7.250657
70.765 7.205888
70.770 7.211957
70.775 7.092334
70.780 7.120324
70.785 7.235689
70.790 6.906395
70.795 6.789424
70.800 7.190382
70.805 7.353151
70.810 7.118697
70.815 6.560361
70.820 6.847019
70.825 7.015299
70.830 7.276302
70.835 7.104164
70.840 6.921528
70.845 7.177323
70.850 7.991996
70.855 7.981988
70.860 8.198677
70.865 8.200568
70.870 8.385061
70.875 8.548699
70.880 8.349691
70.885 7.673459
70.890 7.325014
70.895 6.943951
70.900 6.884568
70.905 6.5856
70.910 6.716134
70.915 7.00301
70.920 7.181264
70.925 7.368443
70.930 7.602643
70.935 7.83467
70.940 7.779653
70.945 7.825028
70.950 7.69636
70.955 7.538482
70.960 7.521783
70.965 7.264153
70.970 6.615618
70.975 6.457224
70.980 6.1641
70.985 5.925735
70.990 5.921379
70.995 5.695759
71.000 6.081652
71.005 6.900313
71.010 7.085361
71.015 7.150334
71.020 7.137294
71.025 7.147905
71.030 7.204317
71.035 7.356421
71.040 6.859925
71.045 6.846732
71.050 6.938851
71.055 7.618214
71.060 8.011661
71.065 8.007115
71.070 7.763231
71.075 8.092392
71.080 8.366117
71.085 8.595233
71.090 8.750343
71.095 8.486595
71.100 8.734029
71.105 8.663759
71.110 8.260171
71.115 7.945867
71.120 7.575994
71.125 7.392147
71.130 7.150112
71.135 6.977171
71.140 6.95374
71.145 6.891107
71.150 6.982418
71.155 7.08595
71.160 7.146891
71.165 7.126804
71.170 7.071773
71.175 7.07956
71.180 7.178773
71.185 7.302385
71.190 7.27784
71.195 7.407853
71.200 7.601174
71.205 7.774963
71.210 8.151063
71.215 8.484386
71.220 8.49516
71.225 8.296395
71.230 8.321242
71.235 8.079901
71.240 7.756581
71.245 7.577545
71.250 7.441931
71.255 7.585312
71.260 8.01834
71.265 7.558879
71.270 7.530496
71.275 7.643989
71.280 7.535792
71.285 7.432236
71.290 6.759304
71.295 6.418604
71.300 6.233733
71.305 6.229706
71.310 6.010378
71.315 5.899022
71.320 6.177993
71.325 6.558564
71.330 6.945595
71.335 7.624155
71.340 8.019753
71.345 8.36705
71.350 8.264466
71.355 8.00596
71.360 8.175861
71.365 8.099078
71.370 8.019973
71.375 8.3081
71.380 8.222781
71.385 8.330721
71.390 8.277402
71.395 7.937224
71.400 7.706871
71.405 7.536626
71.410 7.245912
71.415 7.066124
71.420 7.241776
71.425 7.149058
71.430 7.316288
71.435 7.289418
71.440 7.186752
71.445 7.260714
71.450 7.305697
71.455 7.054986
71.460 7.142169
71.465 7.061806
71.470 6.888705
71.475 7.019823
71.480 6.903732
71.485 7.205278
71.490 7.43793
71.495 7.270672
71.500 7.157308
71.505 7.478663
71.510 7.725217
71.515 8.024464
71.520 7.892531
71.525 7.847747
71.530 8.043184
71.535 8.073303
71.540 7.595802
71.545 7.00569
71.550 6.740516
71.555 6.894875
71.560 7.024161
71.565 6.716606
71.570 6.895485
71.575 7.3333
71.580 7.576003
71.585 7.645891
71.590 7.561694
71.595 7.42255
71.600 7.599259
71.605 7.282192
71.610 7.048226
71.615 7.065365
71.620 6.720097
71.625 6.547568
71.630 6.781497
71.635 6.880281
71.640 7.32654
71.645 7.52433
71.650 7.301158
71.655 7.459486
71.660 7.348428
71.665 7.303093
71.670 6.900506
71.675 6.703854
71.680 6.74596
71.685 6.854617
71.690 6.901927
71.695 7.392899
71.700 7.471899
71.705 7.847151
71.710 8.174455
71.715 8.253514
71.720 8.263206
71.725 8.089324
71.730 8.004428
71.735 8.166039
71.740 7.609317
71.745 7.477772
71.750 7.132821
71.755 6.972425
71.760 6.893776
71.765 6.766389
71.770 6.923552
71.775 6.993381
71.780 6.994068
71.785 7.429744
71.790 7.498706
71.795 7.492021
71.800 7.633275
71.805 7.387352
71.810 7.258642
71.815 7.152602
71.820 7.2872
71.825 7.372107
71.830 7.37903
71.835 6.891709
71.840 6.932499
71.845 6.896263
71.850 6.872154
71.855 6.461921
71.860 6.349508
71.865 6.467158
71.870 6.404055
71.875 6.719623
71.880 7.131118
71.885 7.340034
71.890 7.358914
71.895 7.340027
71.900 7.464598
71.905 7.610611
71.910 7.446729
71.915 7.127101
71.920 7.036756
71.925 7.144549
71.930 6.986579
71.935 6.88974
71.940 7.28689
71.945 7.29536
71.950 7.281305
71.955 7.701298
71.960 8.075024
71.965 8.374249
71.970 8.214525
71.975 7.999923
71.980 7.818224
71.985 7.937138
71.990 7.780425
71.995 7.632447
72.000 7.637293
72.005 7.958168
72.010 8.222796
72.015 8.341475
72.020 8.443312
72.025 8.24466
72.030 8.251316
72.035 7.769524
72.040 7.466169
72.045 7.577808
72.050 7.538229
72.055 7.468954
72.060 7.424826
72.065 7.656361
72.070 8.248697
72.075 8.343702
72.080 8.087683
72.085 7.992627
72.090 7.995721
72.095 8.156287
72.100 7.920257
72.105 7.783408
72.110 7.738913
72.115 7.716056
72.120 7.418905
72.125 7.254628
72.130 7.604524
72.135 7.811022
72.140 7.77732
72.145 7.807519
72.150 7.71915
72.155 8.396615
72.160 8.461315
72.165 8.050073
72.170 7.774543
72.175 7.952124
72.180 8.040639
72.185 8.18692
72.190 8.284349
72.195 8.315739
72.200 8.243806
72.205 8.175819
72.210 8.375074
72.215 8.297029
72.220 8.137811
72.225 7.946526
72.230 8.192759
72.235 8.397766
72.240 8.372088
72.245 8.327996
72.250 8.449372
72.255 8.415439
72.260 7.977926
72.265 7.590232
72.270 7.632361
72.275 8.023275
72.280 8.214725
72.285 7.959921
72.290 7.541373
72.295 7.806218
72.300 7.887845
72.305 7.461344
72.310 6.855361
72.315 6.932998
72.320 7.360167
72.325 7.541657
72.330 7.422772
72.335 7.561613
72.340 7.854007
72.345 7.935978
72.350 7.679188
72.355 7.704936
72.360 7.485844
72.365 7.193613
72.370 6.960482
72.375 6.773675
72.380 6.501652
72.385 6.350063
72.390 6.52236
72.395 6.917242
72.400 7.530263
72.405 7.795171
72.410 7.959557
72.415 7.92619
72.420 7.758559
72.425 7.494094
72.430 7.47364
72.435 7.355015
72.440 7.314937
72.445 7.150037
72.450 7.280814
72.455 7.626205
72.460 7.473094
72.465 7.517669
72.470 7.491001
72.475 7.636093
72.480 7.97483
72.485 7.577831
72.490 7.223108
72.495 7.11877
72.500 7.255506
72.505 7.180477
72.510 7.002729
72.515 7.055451
72.520 7.466764
72.525 8.050669
72.530 8.13456
72.535 7.733394
72.540 7.762874
72.545 7.955531
72.550 7.912862
72.555 7.858667
72.560 7.600483
72.565 7.744431
72.570 7.739974
72.575 7.401983
72.580 7.314288
72.585 7.414697
72.590 7.565638
72.595 7.581449
72.600 7.897585
72.605 8.447665
72.610 8.327601
72.615 8.158595
72.620 8.752751
72.625 8.752134
72.630 8.82189
72.635 7.981663
72.640 7.555266
72.645 7.749341
72.650 7.48596
72.655 6.842597
72.660 7.153168
72.665 7.123741
72.670 7.796296
72.675 8.405603
72.680 8.556554
72.685 8.676591
72.690 8.592971
72.695 8.218278
72.700 7.747243
72.705 7.062951
72.710 6.999813
72.715 6.979358
72.720 6.918704
72.725 6.616888
72.730 6.92346
72.735 7.525099
72.740 7.625917
72.745 7.383957
72.750 7.174779
72.755 7.993998
72.760 8.117527
72.765 7.620746
72.770 6.967443
72.775 6.760623
72.780 6.8431
72.785 6.895433
72.790 6.335311
72.795 6.503142
72.800 6.841389
72.805 7.120768
72.810 7.325478
72.815 7.125108
72.820 7.137101
72.825 7.099866
72.830 6.898695
72.835 6.875525
72.840 6.810347
72.845 6.992345
72.850 7.524589
72.855 7.764831
72.860 8.097654
72.865 8.054862
72.870 8.136314
72.875 8.371847
72.880 8.480013
72.885 8.107882
72.890 7.616569
72.895 7.817132
72.900 7.633255
72.905 7.608131
72.910 7.360604
72.915 7.006634
72.920 7.163568
72.925 6.904863
72.930 6.58533
72.935 6.617835
72.940 6.641956
72.945 6.685046
72.950 6.456295
72.955 6.161277
72.960 6.552599
72.965 6.922325
72.970 6.694629
72.975 6.873357
72.980 7.049041
72.985 7.117656
72.990 7.377045
72.995 7.061636
73.000 6.825967
