!@!!GADDS PLOTSO FILE: Chi integration type
!@!!Title/SampleName: map-15e
!@!!Comment: ?
!@!!User: Bruker Instrument Administrator
!@!!Site: University of Illinois Chicago
!@!!Frame: map-15e_01_000.gfrm
!@!!Wavelengths    1.54184   1.54056   1.54439
!@!!Frame angles: 2Theta: 63.000 Omega: 50.000 Phi: 0.000 Chi: 90.000
!@!!Integration range: 2Theta: 53.000 to 73.000  Gamma: -105.000 to -75.000
!@!!Integration method: bin normalized
!@!N
!@!SS
!@!M
!@!L 0.0 0.0 0.0 0.0
!@!XDegrees
!@!YCounts
53.000 6.623959
53.005 6.879349
53.010 6.980723
53.015 6.879067
53.020 6.638163
53.025 6.401328
53.030 6.944632
53.035 6.932856
53.040 7.063605
53.045 7.382009
53.050 7.672676
53.055 7.682062
53.060 7.63756
53.065 7.192299
53.070 7.269055
53.075 7.073231
53.080 6.962113
53.085 7.056197
53.090 7.05238
53.095 7.208531
53.100 7.323733
53.105 7.342042
53.110 7.674776
53.115 7.105519
53.120 6.837658
53.125 6.568746
53.130 6.522145
53.135 6.325715
53.140 5.891685
53.145 5.652004
53.150 6.305128
53.155 6.952711
53.160 7.190102
53.165 7.326866
53.170 7.584874
53.175 7.660683
53.180 7.611856
53.185 7.329238
53.190 6.846128
53.195 6.57844
53.200 6.322791
53.205 6.188553
53.210 6.377345
53.215 6.651982
53.220 6.591124
53.225 6.819366
53.230 6.877368
53.235 6.87154
53.240 6.995485
53.245 6.574019
53.250 6.611942
53.255 6.749785
53.260 6.663308
53.265 6.766156
53.270 6.80153
53.275 6.857844
53.280 6.562243
53.285 6.199116
53.290 6.229943
53.295 6.597904
53.300 6.486053
53.305 6.278034
53.310 6.490028
53.315 7.199837
53.320 7.561935
53.325 7.335902
53.330 6.984628
53.335 7.093631
53.340 7.09074
53.345 6.972217
53.350 6.503304
53.355 6.136178
53.360 5.946631
53.365 5.778952
53.370 5.650599
53.375 5.518984
53.380 5.579704
53.385 5.867966
53.390 6.165991
53.395 6.825272
53.400 7.139437
53.405 7.180565
53.410 7.247555
53.415 7.264815
53.420 7.43024
53.425 7.378394
53.430 7.032483
53.435 7.077467
53.440 7.173384
53.445 7.291782
53.450 7.020926
53.455 6.542662
53.460 6.264709
53.465 6.525324
53.470 6.803249
53.475 6.925436
53.480 6.672298
53.485 6.627455
53.490 6.928463
53.495 7.132244
53.500 6.842268
53.505 6.642449
53.510 6.491445
53.515 6.564417
53.520 6.34154
53.525 6.12874
53.530 6.218229
53.535 6.355749
53.540 6.314833
53.545 6.564055
53.550 6.751173
53.555 7.450243
53.560 7.326282
53.565 6.838193
53.570 6.503508
53.575 6.728994
53.580 6.717469
53.585 6.595456
53.590 6.116555
53.595 6.118603
53.600 6.33965
53.605 6.312922
53.610 6.128556
53.615 6.131523
53.620 6.091725
53.625 6.205698
53.630 6.389154
53.635 7.183894
53.640 7.401843
53.645 7.483357
53.650 7.233739
53.655 7.198925
53.660 7.50707
53.665 7.275609
53.670 6.908702
53.675 6.731095
53.680 6.703751
53.685 6.992332
53.690 7.22671
53.695 7.062149
53.700 6.903916
53.705 6.802741
53.710 6.671361
53.715 6.767757
53.720 6.77689
53.725 6.789838
53.730 6.713627
53.735 6.636196
53.740 6.601727
53.745 7.132329
53.750 7.245378
53.755 7.308025
53.760 7.240258
53.765 7.320624
53.770 7.691051
53.775 7.497139
53.780 7.01117
53.785 6.781984
53.790 6.664613
53.795 7.006777
53.800 7.253266
53.805 7.293165
53.810 7.418
53.815 7.372143
53.820 7.381581
53.825 7.302807
53.830 6.916847
53.835 6.872955
53.840 7.020955
53.845 7.116861
53.850 7.162766
53.855 7.177418
53.860 7.20433
53.865 7.180768
53.870 6.920744
53.875 6.496404
53.880 6.479113
53.885 6.509098
53.890 6.651705
53.895 6.32932
53.900 6.092342
53.905 6.235927
53.910 6.303067
53.915 6.472089
53.920 6.476715
53.925 6.529526
53.930 7.237102
53.935 7.309474
53.940 7.297491
53.945 6.986819
53.950 6.806106
53.955 6.704298
53.960 6.355796
53.965 5.878748
53.970 6.129337
53.975 6.216858
53.980 6.401153
53.985 6.545013
53.990 6.387534
53.995 6.454198
54.000 6.773976
54.005 7.04241
54.010 7.213871
54.015 7.440666
54.020 7.507837
54.025 7.712958
54.030 7.793039
54.035 7.450608
54.040 7.04264
54.045 6.743703
54.050 6.683348
54.055 6.724522
54.060 6.819053
54.065 6.97721
54.070 7.120224
54.075 7.156257
54.080 7.126106
54.085 6.857418
54.090 6.552756
54.095 6.445168
54.100 6.11394
54.105 5.888556
54.110 5.874453
54.115 5.863006
54.120 6.02122
54.125 6.110731
54.130 6.113627
54.135 6.441246
54.140 6.860358
54.145 7.235651
54.150 7.295213
54.155 6.954124
54.160 6.770649
54.165 6.639536
54.170 6.225235
54.175 6.010079
54.180 5.668225
54.185 5.530659
54.190 5.356357
54.195 5.322001
54.200 5.701007
54.205 6.000523
54.210 6.476146
54.215 6.602758
54.220 6.640421
54.225 6.733572
54.230 6.782042
54.235 6.629992
54.240 6.018206
54.245 5.549965
54.250 5.709448
54.255 6.063172
54.260 6.300683
54.265 6.135454
54.270 5.98988
54.275 6.260351
54.280 6.220352
54.285 6.37494
54.290 6.709642
54.295 6.921888
54.300 7.190248
54.305 7.665171
54.310 7.901649
54.315 7.985562
54.320 7.980439
54.325 7.476748
54.330 7.329819
54.335 6.886416
54.340 6.505372
54.345 6.201931
54.350 6.193355
54.355 6.189504
54.360 6.486357
54.365 6.923764
54.370 6.985218
54.375 7.027711
54.380 6.920192
54.385 6.786833
54.390 6.749521
54.395 6.463578
54.400 5.955835
54.405 6.109634
54.410 6.333474
54.415 6.560518
54.420 6.65162
54.425 6.767934
54.430 6.825176
54.435 7.174792
54.440 7.330053
54.445 7.525837
54.450 7.37832
54.455 6.966868
54.460 6.808766
54.465 6.861708
54.470 6.938152
54.475 6.9752
54.480 6.90061
54.485 7.066569
54.490 7.257249
54.495 7.413864
54.500 7.164222
54.505 7.249228
54.510 6.919922
54.515 6.978086
54.520 6.985736
54.525 6.795073
54.530 6.857612
54.535 6.889359
54.540 6.762807
54.545 6.83499
54.550 7.132356
54.555 7.218486
54.560 7.388258
54.565 7.165645
54.570 7.345236
54.575 7.089664
54.580 6.812105
54.585 6.761163
54.590 6.849587
54.595 6.648954
54.600 6.919398
54.605 6.615389
54.610 6.33185
54.615 6.403892
54.620 6.167622
54.625 6.037703
54.630 6.274269
54.635 6.230732
54.640 6.871598
54.645 7.366507
54.650 7.366459
54.655 7.177243
54.660 7.468801
54.665 7.295914
54.670 7.365949
54.675 6.79474
54.680 6.831665
54.685 6.837895
54.690 7.108717
54.695 6.889579
54.700 6.921055
54.705 6.88131
54.710 7.326709
54.715 7.397645
54.720 7.363261
54.725 7.27601
54.730 7.521205
54.735 7.688612
54.740 7.882999
54.745 7.545995
54.750 7.427885
54.755 7.447911
54.760 7.477551
54.765 7.718543
54.770 7.758142
54.775 7.966773
54.780 7.815977
54.785 7.89507
54.790 7.961004
54.795 7.825059
54.800 7.549695
54.805 7.466561
54.810 7.389695
54.815 7.674885
54.820 7.749061
54.825 7.806272
54.830 7.71116
54.835 8.017098
54.840 8.333839
54.845 8.621061
54.850 9.2402
54.855 9.101961
54.860 9.107483
54.865 9.158798
54.870 8.749314
54.875 8.48819
54.880 8.318097
54.885 7.905344
54.890 7.97138
54.895 7.928596
54.900 7.7058
54.905 7.649962
54.910 7.500197
54.915 7.339139
54.920 7.521592
54.925 7.430899
54.930 7.5808
54.935 8.000616
54.940 7.994033
54.945 8.504442
54.950 9.28145
54.955 9.396532
54.960 9.504762
54.965 9.575044
54.970 9.148567
54.975 9.334315
54.980 8.58202
54.985 7.974768
54.990 7.889259
54.995 7.618145
55.000 7.566677
55.005 7.990384
55.010 8.278438
55.015 8.423035
55.020 8.453365
55.025 8.819368
55.030 8.705621
55.035 8.628368
55.040 8.262633
55.045 7.954032
55.050 7.806416
55.055 7.903698
55.060 7.421757
55.065 7.224504
55.070 7.097648
55.075 7.283646
55.080 7.406349
55.085 7.138888
55.090 7.065923
55.095 7.511865
55.100 7.860403
55.105 7.995646
55.110 7.683774
55.115 7.476478
55.120 7.907333
55.125 7.768137
55.130 7.387284
55.135 7.359998
55.140 7.605852
55.145 7.961552
55.150 7.866313
55.155 7.037986
55.160 6.813831
55.165 6.819378
55.170 6.746445
55.175 6.622968
55.180 6.957086
55.185 7.049968
55.190 7.57796
55.195 7.88049
55.200 8.053588
55.205 8.006516
55.210 8.272137
55.215 8.216618
55.220 8.347964
55.225 8.178894
55.230 7.729627
55.235 7.757417
55.240 7.393694
55.245 6.781664
55.250 6.699762
55.255 6.161066
55.260 6.133168
55.265 6.356172
55.270 6.04187
55.275 5.899413
55.280 5.692961
55.285 5.761194
55.290 5.945943
55.295 5.871646
55.300 5.79604
55.305 5.827255
55.310 6.182211
55.315 6.308704
55.320 6.15846
55.325 6.480402
55.330 6.339055
55.335 5.988623
55.340 5.998851
55.345 5.745173
55.350 5.671031
55.355 5.746452
55.360 5.773909
55.365 6.544889
55.370 7.145802
55.375 7.274761
55.380 7.389348
55.385 7.458665
55.390 7.587957
55.395 7.472157
55.400 6.935207
55.405 6.688764
55.410 6.524425
55.415 6.712146
55.420 6.747746
55.425 6.568665
55.430 6.521141
55.435 6.805433
55.440 6.794977
55.445 6.882565
55.450 7.030359
55.455 6.868538
55.460 6.995617
55.465 7.368419
55.470 7.771714
55.475 7.992507
55.480 7.89903
55.485 7.406711
55.490 7.530349
55.495 7.550552
55.500 7.245384
55.505 6.739249
55.510 6.835998
55.515 7.074479
55.520 7.394032
55.525 7.314643
55.530 7.028461
55.535 7.432116
55.540 7.517427
55.545 7.339038
55.550 7.365314
55.555 7.408967
55.560 7.594889
55.565 7.846841
55.570 7.733792
55.575 8.107154
55.580 8.151351
55.585 7.82806
55.590 7.806642
55.595 7.605294
55.600 7.638695
55.605 7.310854
55.610 7.111368
55.615 7.25666
55.620 7.271415
55.625 7.497529
55.630 7.776288
55.635 7.73222
55.640 7.799818
55.645 7.630964
55.650 7.646144
55.655 7.372383
55.660 6.944512
55.665 6.155949
55.670 5.822177
55.675 5.705842
55.680 6.194678
55.685 6.217573
55.690 6.340545
55.695 6.253011
55.700 6.579299
55.705 6.816861
55.710 6.43821
55.715 5.875784
55.720 5.885263
55.725 6.329551
55.730 6.73818
55.735 6.67735
55.740 6.423687
55.745 6.855539
55.750 6.920559
55.755 6.915962
55.760 6.757071
55.765 6.623428
55.770 6.800828
55.775 7.251948
55.780 7.28463
55.785 7.358648
55.790 7.414057
55.795 7.385857
55.800 7.243262
55.805 7.256249
55.810 7.405549
55.815 7.440842
55.820 7.330613
55.825 7.174644
55.830 7.264476
55.835 7.454015
55.840 7.632617
55.845 7.52601
55.850 7.266828
55.855 7.230154
55.860 7.401392
55.865 7.362888
55.870 7.155429
55.875 6.666334
55.880 6.866205
55.885 7.463592
55.890 7.290905
55.895 7.434146
55.900 7.780992
55.905 7.852664
55.910 7.755784
55.915 7.339775
55.920 7.198419
55.925 7.534247
55.930 7.475554
55.935 7.748476
55.940 8.005759
55.945 8.382509
55.950 8.719101
55.955 8.741481
55.960 8.366719
55.965 8.082372
55.970 8.007987
55.975 7.965215
55.980 7.722571
55.985 7.450319
55.990 7.153446
55.995 7.70516
56.000 7.668088
56.005 7.797084
56.010 7.868632
56.015 7.869831
56.020 7.661717
56.025 7.951344
56.030 7.950585
56.035 7.956923
56.040 7.446074
56.045 7.249065
56.050 7.238279
56.055 7.401579
56.060 7.134472
56.065 6.990065
56.070 6.774293
56.075 7.064613
56.080 7.207189
56.085 7.557958
56.090 7.518173
56.095 7.551768
56.100 7.368021
56.105 7.607091
56.110 7.77044
56.115 7.960033
56.120 7.768575
56.125 7.812807
56.130 7.78415
56.135 7.947683
56.140 7.955415
56.145 8.039084
56.150 7.9223
56.155 7.980829
56.160 8.396619
56.165 9.033643
56.170 8.866013
56.175 8.709735
56.180 8.413421
56.185 8.895376
56.190 8.501817
56.195 7.975986
56.200 7.6119
56.205 7.837719
56.210 8.263416
56.215 8.154159
56.220 7.646973
56.225 7.758929
56.230 7.922953
56.235 8.043081
56.240 7.874494
56.245 7.408071
56.250 7.451113
56.255 7.484375
56.260 7.819221
56.265 7.845862
56.270 7.779909
56.275 7.894056
56.280 8.133675
56.285 8.454506
56.290 9.084949
56.295 9.005399
56.300 8.955309
56.305 8.812834
56.310 8.745538
56.315 8.554116
56.320 8.026834
56.325 7.312979
56.330 7.015407
56.335 7.132195
56.340 6.91428
56.345 7.160361
56.350 7.582192
56.355 8.191792
56.360 8.558623
56.365 8.923735
56.370 8.898324
56.375 8.463796
56.380 8.243877
56.385 8.270842
56.390 7.864002
56.395 7.88597
56.400 7.694714
56.405 7.777482
56.410 8.157608
56.415 8.093843
56.420 8.031796
56.425 7.851053
56.430 7.631464
56.435 7.527968
56.440 7.61985
56.445 7.880003
56.450 7.769859
56.455 7.739418
56.460 8.126706
56.465 8.466255
56.470 8.657841
56.475 8.514058
56.480 8.409194
56.485 8.432404
56.490 8.605952
56.495 8.944117
56.500 8.936452
56.505 8.655217
56.510 8.556554
56.515 8.698131
56.520 9.452691
56.525 9.371194
56.530 8.965514
56.535 9.254716
56.540 9.602224
56.545 10.104014
56.550 9.783126
56.555 9.593327
56.560 9.584089
56.565 9.764653
56.570 9.473232
56.575 9.111149
56.580 8.700478
56.585 8.707199
56.590 8.632762
56.595 8.869499
56.600 9.225235
56.605 9.304094
56.610 9.463954
56.615 9.759735
56.620 9.818817
56.625 9.567695
56.630 9.544278
56.635 9.224655
56.640 9.157148
56.645 9.096251
56.650 8.835437
56.655 8.622543
56.660 8.215234
56.665 7.565471
56.670 7.219787
56.675 7.317988
56.680 7.376579
56.685 7.581203
56.690 7.933672
56.695 8.649479
56.700 8.847216
56.705 9.277564
56.710 9.477541
56.715 9.436578
56.720 9.335783
56.725 9.31482
56.730 9.192309
56.735 8.866479
56.740 8.156167
56.745 8.134953
56.750 8.390118
56.755 8.270727
56.760 8.305596
56.765 8.024728
56.770 8.782558
56.775 9.207982
56.780 9.404709
56.785 9.627425
56.790 9.566165
56.795 9.436317
56.800 9.78708
56.805 9.465919
56.810 9.426
56.815 8.785302
56.820 8.371306
56.825 8.520208
56.830 8.513845
56.835 8.409257
56.840 8.594091
56.845 8.472753
56.850 8.507185
56.855 8.602645
56.860 8.491062
56.865 8.754066
56.870 8.92027
56.875 8.746054
56.880 8.606643
56.885 8.697583
56.890 8.738916
56.895 8.811692
56.900 8.901346
56.905 8.748128
56.910 9.268204
56.915 9.453935
56.920 9.462747
56.925 9.504192
56.930 9.211242
56.935 8.702814
56.940 8.213888
56.945 7.65068
56.950 7.590562
56.955 7.519166
56.960 7.420021
56.965 7.704101
56.970 8.028681
56.975 8.689981
56.980 9.031754
56.985 9.067491
56.990 9.05682
56.995 8.864713
57.000 8.385223
57.005 7.84098
57.010 7.371217
57.015 7.364284
57.020 7.363844
57.025 7.42638
57.030 7.383569
57.035 7.627684
57.040 7.779244
57.045 7.884344
57.050 7.909895
57.055 7.809173
57.060 7.937271
57.065 7.972458
57.070 7.651271
57.075 7.546668
57.080 7.284134
57.085 7.152018
57.090 7.151474
57.095 7.104537
57.100 7.232907
57.105 7.388443
57.110 7.663033
57.115 7.776147
57.120 7.404226
57.125 7.18516
57.130 6.793465
57.135 6.621103
57.140 6.765809
57.145 6.51568
57.150 6.323031
57.155 6.576836
57.160 6.854156
57.165 6.917738
57.170 6.832668
57.175 7.064204
57.180 7.085181
57.185 7.134994
57.190 7.036325
57.195 6.861329
57.200 7.030818
57.205 7.104488
57.210 7.128993
57.215 7.332139
57.220 7.225717
57.225 7.59055
57.230 7.786397
57.235 7.871749
57.240 7.977075
57.245 8.134597
57.250 7.86872
57.255 7.877622
57.260 7.602035
57.265 7.543387
57.270 7.656256
57.275 7.354866
57.280 6.826508
57.285 7.37207
57.290 7.644922
57.295 7.670613
57.300 7.907328
57.305 7.876536
57.310 8.060926
57.315 8.92802
57.320 9.189383
57.325 9.019862
57.330 8.84505
57.335 8.649413
57.340 8.619364
57.345 8.599972
57.350 7.666298
57.355 7.479237
57.360 7.739257
57.365 7.845149
57.370 7.705089
57.375 8.196783
57.380 8.384981
57.385 8.795868
57.390 8.600867
57.395 8.59218
57.400 8.853777
57.405 9.252285
57.410 8.731898
57.415 8.559729
57.420 8.430626
57.425 7.99365
57.430 7.705135
57.435 7.544105
57.440 7.556017
57.445 7.535444
57.450 7.275299
57.455 7.267586
57.460 7.39563
57.465 7.295104
57.470 7.019903
57.475 6.775314
57.480 6.626256
57.485 6.762749
57.490 7.048576
57.495 7.510294
57.500 7.897703
57.505 7.772884
57.510 7.685329
57.515 8.426212
57.520 8.464095
57.525 8.46333
57.530 8.422282
57.535 8.480867
57.540 8.752643
57.545 8.899698
57.550 8.586565
57.555 8.221795
57.560 7.911377
57.565 8.06174
57.570 8.200702
57.575 8.322308
57.580 8.323646
57.585 8.360496
57.590 8.561416
57.595 8.543017
57.600 8.328954
57.605 8.188114
57.610 8.097385
57.615 7.734524
57.620 7.900484
57.625 8.093511
57.630 8.506349
57.635 8.346313
57.640 8.189715
57.645 7.999378
57.650 7.973895
57.655 8.016849
57.660 8.16855
57.665 7.952116
57.670 7.855241
57.675 7.74891
57.680 7.777643
57.685 7.97201
57.690 7.717697
57.695 7.353138
57.700 7.209586
57.705 6.941447
57.710 6.981501
57.715 7.381061
57.720 7.419943
57.725 7.815421
57.730 7.876318
57.735 7.885737
57.740 8.106286
57.745 7.770055
57.750 7.322672
57.755 7.080276
57.760 6.71032
57.765 6.742519
57.770 7.158473
57.775 7.238453
57.780 7.363258
57.785 7.526309
57.790 7.841665
57.795 7.975527
57.800 7.673426
57.805 7.367139
57.810 7.673584
57.815 8.079188
57.820 7.963244
57.825 7.649712
57.830 7.601024
57.835 7.718025
57.840 7.780138
57.845 7.8397
57.850 7.605642
57.855 7.546
57.860 7.869207
57.865 7.523838
57.870 7.206245
57.875 7.259325
57.880 6.861013
57.885 7.026895
57.890 6.706919
57.895 6.430308
57.900 6.814468
57.905 6.72332
57.910 6.410942
57.915 6.073415
57.920 6.176555
57.925 6.489939
57.930 6.446983
57.935 6.243464
57.940 6.621852
57.945 6.91455
57.950 6.985008
57.955 6.938992
57.960 7.021766
57.965 6.889504
57.970 6.948861
57.975 6.875741
57.980 6.938879
57.985 7.307807
57.990 7.379515
57.995 7.374181
58.000 7.781533
58.005 8.52602
58.010 8.560748
58.015 8.655403
58.020 8.50445
58.025 8.702501
58.030 9.174003
58.035 9.113277
58.040 8.725704
58.045 8.914108
58.050 8.756953
58.055 8.751086
58.060 8.414369
58.065 8.075438
58.070 8.501397
58.075 8.592261
58.080 8.308957
58.085 8.322322
58.090 8.348691
58.095 8.410363
58.100 8.294251
58.105 7.84421
58.110 7.42747
58.115 7.445398
58.120 7.721375
58.125 8.180779
58.130 8.621387
58.135 8.755387
58.140 8.685735
58.145 8.754733
58.150 8.844635
58.155 8.311919
58.160 7.673018
58.165 7.223937
58.170 7.011714
58.175 7.211462
58.180 7.272667
58.185 7.207193
58.190 7.60299
58.195 7.440237
58.200 7.388085
58.205 7.633685
58.210 7.830878
58.215 7.883532
58.220 7.85325
58.225 7.889318
58.230 8.344854
58.235 8.523331
58.240 8.695107
58.245 8.54577
58.250 8.681931
58.255 9.059182
58.260 9.143063
58.265 9.13986
58.270 8.931487
58.275 8.401589
58.280 8.212981
58.285 7.837945
58.290 7.346765
58.295 6.992712
58.300 6.828762
58.305 6.917819
58.310 7.07467
58.315 7.283293
58.320 7.491897
58.325 7.996609
58.330 8.079146
58.335 8.015255
58.340 7.849502
58.345 7.846457
58.350 8.086425
58.355 7.69366
58.360 7.594683
58.365 7.898417
58.370 7.873343
58.375 8.158016
58.380 8.264354
58.385 8.272543
58.390 8.486358
58.395 8.476434
58.400 8.132413
58.405 8.273593
58.410 8.493791
58.415 8.404031
58.420 8.114701
58.425 8.400429
58.430 7.987271
58.435 7.975358
58.440 7.68186
58.445 7.163182
58.450 7.071411
58.455 7.456719
58.460 7.205505
58.465 7.316577
58.470 7.207171
58.475 7.22648
58.480 7.323591
58.485 7.362595
58.490 7.482073
58.495 7.568243
58.500 7.787764
58.505 7.89449
58.510 8.122452
58.515 8.261931
58.520 8.074652
58.525 7.67475
58.530 7.233159
58.535 7.272373
58.540 7.155103
58.545 7.358023
58.550 7.667576
58.555 7.852886
58.560 7.77404
58.565 8.133238
58.570 8.078419
58.575 8.220595
58.580 8.230953
58.585 7.822722
58.590 7.924003
58.595 8.196218
58.600 7.723571
58.605 7.493855
58.610 7.219434
58.615 6.979126
58.620 7.042791
58.625 7.229939
58.630 7.487699
58.635 7.826654
58.640 7.874227
58.645 8.108515
58.650 8.443051
58.655 8.621402
58.660 8.383692
58.665 8.175204
58.670 8.494956
58.675 8.542352
58.680 8.364705
58.685 7.899378
58.690 7.806694
58.695 8.146736
58.700 8.417564
58.705 8.364598
58.710 8.860944
58.715 8.806086
58.720 9.114828
58.725 8.95845
58.730 8.439433
58.735 8.375918
58.740 8.43477
58.745 8.465881
58.750 8.229625
58.755 7.983884
58.760 8.416832
58.765 9.249742
58.770 9.239563
58.775 8.898525
58.780 8.775209
58.785 9.001729
58.790 9.172898
58.795 8.97291
58.800 8.430662
58.805 8.364614
58.810 8.503957
58.815 8.306852
58.820 8.184872
58.825 8.273421
58.830 8.137478
58.835 8.047975
58.840 8.028878
58.845 7.782378
58.850 7.791018
58.855 7.916295
58.860 7.532688
58.865 8.104442
58.870 8.529232
58.875 8.997126
58.880 9.612152
58.885 9.844756
58.890 9.879177
58.895 9.871085
58.900 9.177772
58.905 8.766363
58.910 8.556142
58.915 7.909513
58.920 7.223034
58.925 7.02082
58.930 6.956519
58.935 6.867151
58.940 6.72048
58.945 6.742331
58.950 7.11465
58.955 7.490479
58.960 7.53355
58.965 7.467968
58.970 7.173041
58.975 7.216455
58.980 7.16123
58.985 7.552295
58.990 8.04269
58.995 8.653435
59.000 8.762979
59.005 8.836102
59.010 8.712691
59.015 9.108828
59.020 8.863736
59.025 8.435805
59.030 7.937315
59.035 8.32259
59.040 8.800573
59.045 8.654525
59.050 7.874369
59.055 7.709385
59.060 7.68601
59.065 8.005782
59.070 7.753014
59.075 7.499244
59.080 7.575651
59.085 7.761481
59.090 8.12679
59.095 8.440434
59.100 8.308638
59.105 8.352821
59.110 8.505276
59.115 8.50717
59.120 8.680017
59.125 8.212403
59.130 8.085035
59.135 8.000562
59.140 7.984402
59.145 8.134802
59.150 8.232414
59.155 8.125843
59.160 8.157331
59.165 8.140026
59.170 8.458254
59.175 8.86008
59.180 8.77164
59.185 8.578301
59.190 8.359941
59.195 8.547694
59.200 8.724028
59.205 8.482426
59.210 8.294502
59.215 8.033776
59.220 8.318552
59.225 8.427198
59.230 8.284894
59.235 7.809073
59.240 7.568619
59.245 7.250196
59.250 7.090191
59.255 6.964931
59.260 6.873351
59.265 6.875859
59.270 6.962425
59.275 6.917889
59.280 6.86123
59.285 6.641558
59.290 6.826887
59.295 7.228552
59.300 6.993141
59.305 7.122734
59.310 7.478435
59.315 7.869331
59.320 8.07383
59.325 7.641469
59.330 7.646185
59.335 8.07621
59.340 8.103528
59.345 8.132319
59.350 7.759262
59.355 7.788682
59.360 8.04348
59.365 7.730086
59.370 7.658374
59.375 7.87489
59.380 7.985498
59.385 8.267015
59.390 8.333035
59.395 8.27198
59.400 8.325191
59.405 8.097475
59.410 7.901888
59.415 7.983472
59.420 7.908461
59.425 8.142274
59.430 8.214622
59.435 8.226569
59.440 8.368629
59.445 8.563225
59.450 8.592337
59.455 8.653359
59.460 8.809724
59.465 8.849645
59.470 8.731046
59.475 8.984416
59.480 8.861934
59.485 8.837455
59.490 9.106192
59.495 9.281151
59.500 9.058928
59.505 9.172222
59.510 9.027348
59.515 8.934619
59.520 8.964579
59.525 8.836051
59.530 8.429561
59.535 8.548434
59.540 8.348892
59.545 8.073502
59.550 8.048273
59.555 7.817129
59.560 7.970107
59.565 8.413327
59.570 8.585899
59.575 8.766866
59.580 8.73535
59.585 8.903355
59.590 9.072822
59.595 8.636845
59.600 8.127939
59.605 7.98959
59.610 7.982206
59.615 8.159344
59.620 8.008183
59.625 7.911878
59.630 8.048523
59.635 8.061205
59.640 8.088075
59.645 7.932957
59.650 7.981462
59.655 8.267859
59.660 8.573493
59.665 8.568328
59.670 8.924542
59.675 9.082927
59.680 9.409203
59.685 9.507471
59.690 9.164023
59.695 9.151327
59.700 9.269324
59.705 8.829472
59.710 8.868054
59.715 8.840119
59.720 8.888859
59.725 8.53618
59.730 8.220197
59.735 8.645031
59.740 8.742916
59.745 8.405317
59.750 8.048655
59.755 7.981564
59.760 8.476727
59.765 8.519676
59.770 7.896808
59.775 7.818227
59.780 7.980276
59.785 8.115796
59.790 8.327614
59.795 8.180843
59.800 8.295902
59.805 8.209964
59.810 8.461506
59.815 8.471824
59.820 8.721099
59.825 8.382362
59.830 8.761705
59.835 9.128428
59.840 9.561063
59.845 9.745173
59.850 9.578519
59.855 9.496773
59.860 9.569827
59.865 9.018089
59.870 8.762205
59.875 8.410751
59.880 8.232477
59.885 8.395882
59.890 7.9195
59.895 7.98051
59.900 7.822595
59.905 7.38164
59.910 7.536303
59.915 7.56043
59.920 7.464042
59.925 7.796834
59.930 8.029823
59.935 8.168422
59.940 8.48702
59.945 8.39294
59.950 8.237149
59.955 8.106069
59.960 7.953428
59.965 7.3957
59.970 7.610261
59.975 7.624177
59.980 7.535468
59.985 7.769016
59.990 8.029408
59.995 7.977367
60.000 8.472822
60.005 8.254188
60.010 8.166297
60.015 8.415934
60.020 8.442549
60.025 8.357268
60.030 8.243577
60.035 7.968651
60.040 8.00164
60.045 8.295583
60.050 8.721472
60.055 8.456132
60.060 8.617501
60.065 8.687334
60.070 8.840784
60.075 9.39864
60.080 9.414158
60.085 8.623246
60.090 8.699695
60.095 8.832546
60.100 8.777858
60.105 8.619645
60.110 8.27906
60.115 8.002506
60.120 8.113107
60.125 7.918925
60.130 7.65022
60.135 7.840361
60.140 7.690898
60.145 7.495783
60.150 7.388364
60.155 7.413928
60.160 7.196628
60.165 7.191069
60.170 6.922938
60.175 6.940363
60.180 6.830836
60.185 6.781434
60.190 7.016879
60.195 6.909772
60.200 6.925241
60.205 6.859082
60.210 6.76238
60.215 6.712349
60.220 6.531435
60.225 6.763264
60.230 7.008344
60.235 7.172046
60.240 7.413034
60.245 7.277164
60.250 7.402614
60.255 7.928648
60.260 7.628208
60.265 7.85303
60.270 7.980518
60.275 8.002256
60.280 8.336762
60.285 8.410474
60.290 8.272047
60.295 8.552187
60.300 8.398514
60.305 8.161907
60.310 8.282803
60.315 8.285182
60.320 7.883485
60.325 7.410487
60.330 7.050704
60.335 7.177489
60.340 7.073013
60.345 6.927138
60.350 6.947544
60.355 7.495764
60.360 7.918114
60.365 8.026293
60.370 7.991304
60.375 8.426392
60.380 8.229783
60.385 7.813231
60.390 7.724923
60.395 7.906804
60.400 7.859757
60.405 7.835745
60.410 7.910242
60.415 8.108803
60.420 8.858556
60.425 8.884777
60.430 8.648856
60.435 8.916096
60.440 8.856176
60.445 8.974924
60.450 9.010106
60.455 9.012203
60.460 9.062338
60.465 9.177142
60.470 9.171025
60.475 9.305487
60.480 8.997218
60.485 8.900818
60.490 8.789175
60.495 8.712753
60.500 8.433608
60.505 8.233386
60.510 8.571484
60.515 8.411522
60.520 8.294518
60.525 8.340224
60.530 8.251768
60.535 8.339037
60.540 7.993345
60.545 7.034499
60.550 7.123855
60.555 6.87185
60.560 6.550612
60.565 6.543862
60.570 6.760603
60.575 7.294887
60.580 7.719311
60.585 7.607955
60.590 8.029873
60.595 8.170394
60.600 8.251841
60.605 8.065259
60.610 8.012981
60.615 8.079221
60.620 8.287045
60.625 8.027982
60.630 7.791004
60.635 8.179907
60.640 8.433461
60.645 8.516189
60.650 8.409084
60.655 8.690999
60.660 8.607984
60.665 8.487312
60.670 7.986192
60.675 7.614107
60.680 7.522482
60.685 7.397423
60.690 6.886729
60.695 7.060804
60.700 6.855747
60.705 6.826104
60.710 6.687633
60.715 6.412158
60.720 6.632099
60.725 6.566398
60.730 6.589891
60.735 6.939343
60.740 7.095138
60.745 7.192739
60.750 7.253919
60.755 7.295307
60.760 7.791113
60.765 8.075825
60.770 8.171626
60.775 8.178402
60.780 8.525503
60.785 8.912622
60.790 9.077289
60.795 9.130671
60.800 9.194754
60.805 9.133996
60.810 9.483117
60.815 9.63591
60.820 9.247923
60.825 8.99632
60.830 8.793743
60.835 8.790597
60.840 8.910911
60.845 8.177869
60.850 7.86124
60.855 8.118586
60.860 8.194122
60.865 7.913343
60.870 7.684549
60.875 7.635782
60.880 7.893002
60.885 7.778014
60.890 7.340163
60.895 7.510424
60.900 7.61024
60.905 7.5281
60.910 7.629939
60.915 7.317293
60.920 7.478308
60.925 7.759754
60.930 7.518048
60.935 7.444129
60.940 7.745543
60.945 7.933151
60.950 8.191324
60.955 8.188267
60.960 7.93042
60.965 7.85615
60.970 7.857195
60.975 7.576914
60.980 7.260596
60.985 7.372008
60.990 7.537993
60.995 7.896238
61.000 7.906774
61.005 7.788162
61.010 7.864679
61.015 8.135192
61.020 8.286953
61.025 8.329508
61.030 8.183401
61.035 8.269238
61.040 8.184905
61.045 7.888803
61.050 7.522202
61.055 7.049247
61.060 6.727482
61.065 6.725594
61.070 6.815711
61.075 7.12923
61.080 7.182867
61.085 7.121256
61.090 7.438511
61.095 7.517366
61.100 7.258662
61.105 6.961455
61.110 6.913709
61.115 7.213229
61.120 7.223242
61.125 7.094307
61.130 6.948353
61.135 7.130609
61.140 7.473211
61.145 7.526461
61.150 7.492832
61.155 7.476044
61.160 7.763013
61.165 8.097839
61.170 8.154481
61.175 8.245588
61.180 7.949487
61.185 7.619042
61.190 7.575241
61.195 7.24519
61.200 6.934139
61.205 7.0741
61.210 7.097547
61.215 7.721456
61.220 8.286895
61.225 8.594832
61.230 8.963722
61.235 9.195104
61.240 8.928237
61.245 8.96716
61.250 8.535467
61.255 8.083529
61.260 7.937973
61.265 7.529598
61.270 7.254312
61.275 7.314075
61.280 7.079277
61.285 7.305315
61.290 7.456126
61.295 7.45792
61.300 7.731988
61.305 8.145525
61.310 8.101368
61.315 8.017624
61.320 7.924039
61.325 8.129374
61.330 8.497787
61.335 8.37567
61.340 8.440951
61.345 8.283189
61.350 8.403871
61.355 8.141698
61.360 8.057708
61.365 7.901717
61.370 7.71015
61.375 7.160924
61.380 7.763899
61.385 7.858762
61.390 7.930614
61.395 7.518397
61.400 7.505445
61.405 7.360346
61.410 7.437985
61.415 7.092232
61.420 7.078015
61.425 6.997411
61.430 7.106694
61.435 6.780527
61.440 6.825232
61.445 6.959743
61.450 6.986639
61.455 6.961346
61.460 6.795158
61.465 6.890132
61.470 7.258869
61.475 8.118091
61.480 8.367107
61.485 8.43158
61.490 8.584998
61.495 8.97634
61.500 8.900341
61.505 9.039207
61.510 8.379176
61.515 8.242327
61.520 7.816048
61.525 7.731902
61.530 7.598744
61.535 7.422148
61.540 7.060887
61.545 7.222922
61.550 7.41972
61.555 7.912836
61.560 7.918154
61.565 7.626802
61.570 7.751434
61.575 8.193217
61.580 8.360126
61.585 8.021633
61.590 7.780988
61.595 8.112682
61.600 8.729534
61.605 8.722619
61.610 8.422139
61.615 8.262216
61.620 8.725294
61.625 8.510108
61.630 7.990454
61.635 7.509096
61.640 7.722177
61.645 7.612881
61.650 7.549008
61.655 7.371522
61.660 7.49242
61.665 7.829957
61.670 7.911192
61.675 7.593196
61.680 7.400822
61.685 7.085201
61.690 6.790622
61.695 7.072222
61.700 6.844244
61.705 7.136031
61.710 7.373309
61.715 7.973714
61.720 8.26191
61.725 8.49058
61.730 8.300467
61.735 8.427526
61.740 8.268765
61.745 8.328404
61.750 8.14957
61.755 8.424655
61.760 8.327222
61.765 8.252098
61.770 8.183981
61.775 8.264256
61.780 8.061864
61.785 7.852889
61.790 7.887469
61.795 7.965384
61.800 8.088044
61.805 8.013727
61.810 8.114274
61.815 8.431988
61.820 8.871851
61.825 8.529489
61.830 8.391032
61.835 8.632755
61.840 8.547983
61.845 8.44343
61.850 8.212368
61.855 7.929999
61.860 8.410613
61.865 8.844651
61.870 8.737033
61.875 9.176508
61.880 9.48142
61.885 9.644876
61.890 9.728343
61.895 9.410861
61.900 9.373005
61.905 9.450585
61.910 9.011628
61.915 8.478697
61.920 8.370656
61.925 8.272153
61.930 8.505081
61.935 8.216915
61.940 7.95991
61.945 8.152383
61.950 8.193704
61.955 8.042045
61.960 7.896874
61.965 7.70558
61.970 7.663003
61.975 7.746296
61.980 7.710495
61.985 8.368119
61.990 8.638132
61.995 8.605981
62.000 8.818121
62.005 9.26725
62.010 9.483208
62.015 9.255401
62.020 8.4881
62.025 8.18076
62.030 8.194732
62.035 8.122528
62.040 7.918641
62.045 8.183499
62.050 8.75997
62.055 9.342765
62.060 9.781001
62.065 9.465567
62.070 8.977289
62.075 8.728674
62.080 8.88343
62.085 8.399901
62.090 7.909774
62.095 7.892437
62.100 7.927874
62.105 8.003675
62.110 7.879693
62.115 7.583082
62.120 7.788899
62.125 7.64412
62.130 7.453902
62.135 7.672625
62.140 8.442829
62.145 8.664549
62.150 8.761453
62.155 9.095344
62.160 9.633569
62.165 9.72363
62.170 10.036757
62.175 9.944442
62.180 9.972566
62.185 9.790451
62.190 9.785026
62.195 9.409826
62.200 9.308326
62.205 9.070022
62.210 8.597075
62.215 8.476236
62.220 8.374399
62.225 7.997148
62.230 8.384091
62.235 8.188349
62.240 7.788998
62.245 8.090509
62.250 8.148311
62.255 8.173317
62.260 8.033055
62.265 7.424076
62.270 7.622427
62.275 7.858387
62.280 8.018002
62.285 8.167559
62.290 8.269296
62.295 8.22379
62.300 8.46944
62.305 8.798013
62.310 8.718317
62.315 8.258175
62.320 7.919118
62.325 7.738801
62.330 7.696718
62.335 7.941128
62.340 7.841524
62.345 8.079128
62.350 8.550127
62.355 9.01857
62.360 9.092337
62.365 9.19888
62.370 8.855201
62.375 9.058199
62.380 9.005672
62.385 8.609056
62.390 8.148439
62.395 8.198282
62.400 8.655249
62.405 8.974732
62.410 8.55934
62.415 8.452032
62.420 8.620705
62.425 8.800751
62.430 8.770286
62.435 8.733816
62.440 8.894802
62.445 8.987123
62.450 8.560548
62.455 8.36899
62.460 8.674275
62.465 9.145083
62.470 9.150499
62.475 8.935537
62.480 9.265817
62.485 9.516756
62.490 9.572817
62.495 9.21148
62.500 8.723139
62.505 8.494709
62.510 8.523175
62.515 8.133245
62.520 8.071335
62.525 8.254513
62.530 8.353092
62.535 8.569075
62.540 8.700627
62.545 9.193619
62.550 9.0066
62.555 9.111067
62.560 9.122242
62.565 8.843512
62.570 8.850214
62.575 8.813457
62.580 8.54411
62.585 8.986882
62.590 8.774017
62.595 8.781225
62.600 9.232073
62.605 9.102654
62.610 9.211876
62.615 9.231207
62.620 9.599229
62.625 9.822465
62.630 9.729984
62.635 9.799258
62.640 9.801584
62.645 9.567635
62.650 9.383283
62.655 9.170244
62.660 9.037071
62.665 9.202737
62.670 9.306015
62.675 9.433195
62.680 9.393686
62.685 9.201274
62.690 9.362959
62.695 9.530078
62.700 9.479945
62.705 9.581596
62.710 9.625893
62.715 9.704422
62.720 10.145105
62.725 9.994538
62.730 10.268509
62.735 10.472041
62.740 10.177334
62.745 10.032964
62.750 10.191318
62.755 9.979088
62.760 10.218534
62.765 10.301526
62.770 9.875543
62.775 9.965924
62.780 10.093094
62.785 9.592206
62.790 9.590601
62.795 9.340161
62.800 9.29097
62.805 9.65377
62.810 9.566907
62.815 9.433752
62.820 9.540469
62.825 9.592131
62.830 9.648179
62.835 9.462707
62.840 9.37258
62.845 9.286222
62.850 9.047102
62.855 9.241644
62.860 9.184546
62.865 9.113626
62.870 9.193537
62.875 9.202847
62.880 9.330412
62.885 9.32252
62.890 8.992835
62.895 9.029366
62.900 9.437785
62.905 9.251887
62.910 9.041901
62.915 8.874097
62.920 9.028253
62.925 9.468975
62.930 9.42996
62.935 9.261042
62.940 9.081913
62.945 8.704462
62.950 9.143333
62.955 9.165946
62.960 8.998939
62.965 9.076033
62.970 9.257771
62.975 9.599002
62.980 10.224082
62.985 9.887971
62.990 9.756389
62.995 9.755828
63.000 9.442186
63.005 9.019717
63.010 9.133862
63.015 9.229416
63.020 9.276326
63.025 9.2401
63.030 9.153172
63.035 9.066233
63.040 9.191442
63.045 8.729333
63.050 8.292728
63.055 8.367842
63.060 8.237483
63.065 8.262876
63.070 8.143732
63.075 7.906543
63.080 8.186601
63.085 8.145102
63.090 7.924227
63.095 7.77135
63.100 7.387599
63.105 7.389884
63.110 7.370748
63.115 7.168683
63.120 7.191936
63.125 7.758228
63.130 8.375092
63.135 8.35794
63.140 8.216836
63.145 8.435947
63.150 8.120634
63.155 7.797461
63.160 7.5684
63.165 7.159498
63.170 7.306923
63.175 7.540203
63.180 7.667283
63.185 7.969141
63.190 8.003118
63.195 8.01088
63.200 8.854369
63.205 9.310694
63.210 9.158942
63.215 9.054655
63.220 9.106957
63.225 9.305566
63.230 9.552559
63.235 8.949578
63.240 9.007648
63.245 9.088018
63.250 9.560581
63.255 9.882223
63.260 10.137935
63.265 9.881676
63.270 9.798044
63.275 9.787283
63.280 9.9266
63.285 9.776475
63.290 9.687438
63.295 9.351717
63.300 9.016432
63.305 8.879418
63.310 8.510182
63.315 8.104657
63.320 8.291825
63.325 8.409756
63.330 8.627209
63.335 8.495228
63.340 8.49113
63.345 8.604619
63.350 8.577368
63.355 8.362225
63.360 8.361023
63.365 8.592438
63.370 9.056154
63.375 9.495538
63.380 9.764006
63.385 9.768549
63.390 9.50395
63.395 9.061151
63.400 8.834535
63.405 8.588747
63.410 8.024587
63.415 7.867082
63.420 7.980365
63.425 8.262418
63.430 8.502648
63.435 8.545231
63.440 8.77021
63.445 8.972668
63.450 9.055078
63.455 8.802914
63.460 8.386956
63.465 8.743142
63.470 8.788908
63.475 9.084252
63.480 9.093369
63.485 9.376784
63.490 9.80726
63.495 9.949318
63.500 9.157849
63.505 9.176222
63.510 9.064819
63.515 8.904057
63.520 8.84172
63.525 8.648679
63.530 8.958518
63.535 9.517971
63.540 9.588518
63.545 9.405597
63.550 9.380149
63.555 9.255207
63.560 9.102074
63.565 9.56699
63.570 9.127867
63.575 9.197302
63.580 9.430228
63.585 9.683691
63.590 9.789424
63.595 10.084212
63.600 9.829019
63.605 10.111164
63.610 9.551723
63.615 9.463954
63.620 9.570813
63.625 9.318611
63.630 8.722438
63.635 8.395366
63.640 8.029679
63.645 8.047845
63.650 7.809504
63.655 7.622201
63.660 7.755114
63.665 7.789927
63.670 7.86508
63.675 8.328536
63.680 8.475152
63.685 8.584991
63.690 8.670439
63.695 8.700287
63.700 9.065145
63.705 9.113293
63.710 8.940272
63.715 8.934807
63.720 8.806113
63.725 8.404668
63.730 8.105997
63.735 7.694364
63.740 7.485993
63.745 7.553463
63.750 7.685489
63.755 7.526468
63.760 7.65081
63.765 8.104759
63.770 8.638121
63.775 8.828324
63.780 8.868994
63.785 8.870149
63.790 9.17628
63.795 9.481695
63.800 9.546047
63.805 9.205156
63.810 9.415529
63.815 9.417339
63.820 9.691033
63.825 9.695882
63.830 9.107123
63.835 8.713957
63.840 8.853514
63.845 8.952695
63.850 9.216984
63.855 9.206369
63.860 9.291504
63.865 9.399448
63.870 9.229119
63.875 8.982369
63.880 8.883384
63.885 8.900854
63.890 8.937892
63.895 8.959902
63.900 8.896584
63.905 8.885624
63.910 8.742181
63.915 8.16208
63.920 7.876731
63.925 7.640796
63.930 7.758149
63.935 8.110677
63.940 8.199134
63.945 8.35919
63.950 8.59683
63.955 8.416062
63.960 8.238403
63.965 7.964278
63.970 7.783427
63.975 8.028853
63.980 7.742043
63.985 7.863914
63.990 7.961494
63.995 7.954603
64.000 7.925065
64.005 8.147066
64.010 7.95067
64.015 8.085359
64.020 8.254117
64.025 8.255215
64.030 8.256654
64.035 8.678495
64.040 8.351749
64.045 9.146908
64.050 9.603348
64.055 9.017313
64.060 8.971166
64.065 9.052188
64.070 8.813575
64.075 8.771332
64.080 8.2114
64.085 8.346514
64.090 8.713627
64.095 8.477676
64.100 8.528498
64.105 8.866832
64.110 9.330378
64.115 9.047216
64.120 8.512955
64.125 8.29315
64.130 8.314964
64.135 8.668264
64.140 8.493756
64.145 8.16341
64.150 7.963432
64.155 7.616684
64.160 7.695997
64.165 7.424315
64.170 6.835914
64.175 6.823059
64.180 6.857333
64.185 7.082867
64.190 7.383931
64.195 7.710814
64.200 8.311825
64.205 8.594012
64.210 8.594895
64.215 8.6027
64.220 8.555608
64.225 8.633425
64.230 8.584922
64.235 8.567492
64.240 8.839007
64.245 8.832422
64.250 9.086381
64.255 9.528021
64.260 9.42934
64.265 9.498331
64.270 9.316213
64.275 8.802072
64.280 8.854735
64.285 8.859628
64.290 8.71564
64.295 8.724275
64.300 8.493862
64.305 8.190001
64.310 8.326657
64.315 8.269814
64.320 8.219936
64.325 8.296943
64.330 8.330076
64.335 8.618742
64.340 9.166915
64.345 9.174634
64.350 9.295834
64.355 9.829999
64.360 10.091438
64.365 10.164597
64.370 9.924321
64.375 9.600526
64.380 9.497324
64.385 9.429652
64.390 8.656014
64.395 8.568282
64.400 8.804875
64.405 9.16211
64.410 9.540797
64.415 9.709937
64.420 9.843183
64.425 10.245173
64.430 9.918568
64.435 9.800287
64.440 9.887384
64.445 9.977276
64.450 10.598533
64.455 10.406265
64.460 10.285921
64.465 10.611562
64.470 10.316632
64.475 9.764279
64.480 9.372206
64.485 9.062055
64.490 9.225697
64.495 9.123033
64.500 8.646794
64.505 8.880905
64.510 9.403468
64.515 9.503749
64.520 9.190625
64.525 9.375166
64.530 9.627057
64.535 10.566259
64.540 10.497907
64.545 10.024356
64.550 9.950786
64.555 10.062905
64.560 9.644649
64.565 9.261395
64.570 8.572037
64.575 8.263029
64.580 8.42133
64.585 8.423326
64.590 8.370446
64.595 8.510147
64.600 8.629606
64.605 9.194676
64.610 9.654869
64.615 9.545284
64.620 9.427633
64.625 9.534503
64.630 9.574737
64.635 9.738423
64.640 10.094844
64.645 9.943538
64.650 10.210964
64.655 10.377938
64.660 10.330676
64.665 10.642112
64.670 10.594904
64.675 9.942366
64.680 10.2166
64.685 10.250314
64.690 10.538064
64.695 10.387492
64.700 9.955093
64.705 9.775539
64.710 9.952718
64.715 9.397777
64.720 9.176239
64.725 9.216005
64.730 9.761335
64.735 10.041912
64.740 10.490083
64.745 10.56084
64.750 10.851711
64.755 11.17895
64.760 10.977355
64.765 10.892507
64.770 11.117178
64.775 10.701773
64.780 11.14324
64.785 11.584549
64.790 11.458916
64.795 11.844824
64.800 11.968375
64.805 12.146048
64.810 12.569365
64.815 12.722348
64.820 12.881857
64.825 13.137644
64.830 13.117931
64.835 13.620368
64.840 13.508182
64.845 13.826109
64.850 13.875833
64.855 14.349822
64.860 14.976443
64.865 15.470634
64.870 15.520817
64.875 15.328233
64.880 14.862632
64.885 14.873345
64.890 14.703311
64.895 15.042736
64.900 14.999702
64.905 15.260827
64.910 15.779747
64.915 16.724789
64.920 16.652025
64.925 16.536953
64.930 15.779427
64.935 15.562904
64.940 15.598583
64.945 16.163837
64.950 16.325966
64.955 16.945995
64.960 17.567263
64.965 18.018908
64.970 18.135078
64.975 17.326971
64.980 16.884918
64.985 17.178616
64.990 17.325998
64.995 17.075674
65.000 17.491879
65.005 17.558313
65.010 18.34399
65.015 18.316299
65.020 19.18903
65.025 19.696718
65.030 19.946899
65.035 20.04085
65.040 19.943455
65.045 19.497677
65.050 19.91396
65.055 18.854517
65.060 18.457985
65.065 18.699594
65.070 18.639786
65.075 19.293034
65.080 19.415936
65.085 18.38405
65.090 18.498165
65.095 18.784674
65.100 18.089651
65.105 18.149914
65.110 17.79517
65.115 17.888556
65.120 18.528378
65.125 17.728846
65.130 16.984119
65.135 16.524851
65.140 15.835072
65.145 15.726029
65.150 15.819558
65.155 16.013517
65.160 16.169489
65.165 16.251768
65.170 16.305931
65.175 16.484451
65.180 16.272337
65.185 15.933563
65.190 15.939488
65.195 15.882616
65.200 16.481144
65.205 16.765287
65.210 16.12678
65.215 16.140602
65.220 15.734611
65.225 14.962254
65.230 13.953508
65.235 12.958448
65.240 12.263872
65.245 12.34783
65.250 12.030867
65.255 11.749042
65.260 11.62761
65.265 11.718969
65.270 11.735754
65.275 12.226097
65.280 12.386394
65.285 12.205554
65.290 12.415219
65.295 12.914985
65.300 13.21931
65.305 12.801755
65.310 12.385977
65.315 12.144328
65.320 12.429378
65.325 12.46222
65.330 11.941789
65.335 11.90747
65.340 12.051543
65.345 12.132901
65.350 11.571896
65.355 10.920911
65.360 10.63033
65.365 10.79739
65.370 10.708067
65.375 10.933207
65.380 10.729896
65.385 10.854806
65.390 10.873342
65.395 10.650196
65.400 10.488085
65.405 10.215167
65.410 9.89934
65.415 9.947904
65.420 9.953653
65.425 9.924778
65.430 9.837097
65.435 9.91686
65.440 9.995798
65.445 10.099874
65.450 9.730922
65.455 9.903329
65.460 10.368142
65.465 10.298236
65.470 10.153275
65.475 9.519703
65.480 9.401196
65.485 9.280417
65.490 8.757776
65.495 8.571228
65.500 8.431823
65.505 7.962538
65.510 7.768045
65.515 7.510502
65.520 7.581063
65.525 7.520737
65.530 7.387325
65.535 7.93445
65.540 8.283622
65.545 8.492685
65.550 8.572641
65.555 9.152073
65.560 9.27528
65.565 9.001759
65.570 8.659379
65.575 8.672506
65.580 8.808349
65.585 9.053214
65.590 8.828621
65.595 8.994676
65.600 9.18349
65.605 9.386718
65.610 9.188884
65.615 9.112888
65.620 8.893883
65.625 8.750185
65.630 8.707661
65.635 8.771805
65.640 8.699504
65.645 9.21117
65.650 9.179296
65.655 9.286352
65.660 9.566574
65.665 9.575375
65.670 9.450789
65.675 9.318923
65.680 9.033202
65.685 9.184177
65.690 8.896578
65.695 8.522892
65.700 8.423418
65.705 8.491153
65.710 8.517704
65.715 8.456268
65.720 8.463972
65.725 8.836559
65.730 9.032965
65.735 9.185466
65.740 8.966572
65.745 9.043777
65.750 9.083545
65.755 9.038079
65.760 8.749981
65.765 8.756339
65.770 8.675487
65.775 8.815252
65.780 8.878855
65.785 8.657112
65.790 8.280374
65.795 8.251801
65.800 8.190485
65.805 8.526896
65.810 8.751364
65.815 8.582376
65.820 8.948193
65.825 9.002662
65.830 9.099307
65.835 8.92342
65.840 8.676256
65.845 8.215759
65.850 8.041265
65.855 7.778853
65.860 7.647937
65.865 7.943771
65.870 8.136824
65.875 7.903534
65.880 8.584209
65.885 8.61482
65.890 8.520839
65.895 8.780894
65.900 8.741951
65.905 8.719688
65.910 8.793546
65.915 8.58026
65.920 9.090669
65.925 9.400788
65.930 9.146505
65.935 8.800175
65.940 8.58494
65.945 8.880494
65.950 8.332511
65.955 8.201026
65.960 8.526287
65.965 8.595016
65.970 8.660731
65.975 8.750381
65.980 8.695493
65.985 8.787321
65.990 8.557211
65.995 8.551369
66.000 8.564751
66.005 8.581927
66.010 8.784447
66.015 8.516828
66.020 8.275459
66.025 7.944581
66.030 7.722131
66.035 7.983816
66.040 8.054914
66.045 7.663493
66.050 7.875407
66.055 8.265059
66.060 8.687128
66.065 8.371334
66.070 8.054114
66.075 7.86458
66.080 7.885511
66.085 7.779
66.090 7.607405
66.095 7.868845
66.100 8.137033
66.105 8.604072
66.110 8.919325
66.115 9.18664
66.120 9.38594
66.125 9.288006
66.130 9.109548
66.135 9.500386
66.140 9.515452
66.145 9.648971
66.150 9.765131
66.155 9.717896
66.160 9.991931
66.165 9.924092
66.170 9.39502
66.175 8.597135
66.180 7.928942
66.185 7.732681
66.190 7.913374
66.195 7.701319
66.200 7.633561
66.205 8.145504
66.210 8.579331
66.215 9.104012
66.220 9.085521
66.225 8.789796
66.230 8.786901
66.235 8.43411
66.240 8.070384
66.245 7.978978
66.250 8.024573
66.255 8.139531
66.260 8.072802
66.265 8.399259
66.270 9.017526
66.275 9.375966
66.280 9.401222
66.285 9.173658
66.290 9.188935
66.295 9.178057
66.300 8.843946
66.305 8.406731
66.310 7.909709
66.315 7.546606
66.320 7.647877
66.325 7.556968
66.330 7.714984
66.335 7.976548
66.340 7.933652
66.345 8.421043
66.350 8.693184
66.355 8.235271
66.360 8.187947
66.365 8.127713
66.370 8.125105
66.375 7.924155
66.380 7.82617
66.385 8.034053
66.390 8.539503
66.395 8.871676
66.400 9.028481
66.405 8.674476
66.410 8.976389
66.415 8.754519
66.420 8.624363
66.425 8.339694
66.430 8.061374
66.435 7.933755
66.440 7.869596
66.445 7.620605
66.450 7.939694
66.455 8.222404
66.460 8.405722
66.465 8.258247
66.470 8.186203
66.475 8.142244
66.480 8.156882
66.485 7.659039
66.490 7.21125
66.495 7.22773
66.500 7.472754
66.505 7.228422
66.510 7.405655
66.515 7.66341
66.520 8.149792
66.525 8.599896
66.530 8.480914
66.535 8.524485
66.540 8.732308
66.545 8.872131
66.550 8.519668
66.555 8.188277
66.560 8.091972
66.565 8.253677
66.570 8.396363
66.575 8.385888
66.580 8.095097
66.585 7.97581
66.590 7.607135
66.595 7.076396
66.600 6.704676
66.605 6.625968
66.610 6.408171
66.615 6.63281
66.620 7.19862
66.625 7.963295
66.630 8.568477
66.635 8.880095
66.640 8.809481
66.645 9.13568
66.650 9.115254
66.655 8.939841
66.660 8.517057
66.665 8.039693
66.670 7.707434
66.675 7.625389
66.680 7.564923
66.685 7.141024
66.690 6.879096
66.695 6.650218
66.700 6.568207
66.705 6.662211
66.710 6.660646
66.715 6.592055
66.720 7.176833
66.725 7.506662
66.730 7.918491
66.735 8.057806
66.740 7.976916
66.745 7.922126
66.750 7.474858
66.755 6.905638
66.760 6.567472
66.765 6.521036
66.770 6.547593
66.775 6.873764
66.780 7.311042
66.785 7.574399
66.790 7.861547
66.795 8.138726
66.800 8.396071
66.805 8.873494
66.810 8.988668
66.815 8.86636
66.820 9.022303
66.825 8.828434
66.830 8.768108
66.835 8.456769
66.840 8.111511
66.845 8.00052
66.850 7.995528
66.855 7.64407
66.860 8.055967
66.865 7.90302
66.870 7.796947
66.875 7.529036
66.880 7.499513
66.885 7.497619
66.890 7.686443
66.895 7.675406
66.900 7.981912
66.905 8.028031
66.910 8.231097
66.915 7.974412
66.920 7.954755
66.925 7.963731
66.930 8.245255
66.935 8.572377
66.940 8.723537
66.945 8.723356
66.950 8.798276
66.955 8.951869
66.960 9.024746
66.965 8.662297
66.970 8.530396
66.975 8.759328
66.980 9.061166
66.985 9.243432
66.990 9.39557
66.995 9.180719
67.000 8.984417
67.005 8.601633
67.010 8.341926
67.015 8.326071
67.020 8.197596
67.025 7.885642
67.030 7.812827
67.035 8.019647
67.040 8.28461
67.045 8.072943
67.050 7.828271
67.055 8.124895
67.060 8.345386
67.065 8.296336
67.070 8.065434
67.075 8.091009
67.080 8.37184
67.085 8.229024
67.090 8.216237
67.095 8.089093
67.100 8.147735
67.105 8.359187
67.110 8.432388
67.115 8.150857
67.120 8.282437
67.125 8.034809
67.130 8.096805
67.135 8.381166
67.140 8.274432
67.145 7.911555
67.150 7.756316
67.155 7.604974
67.160 7.574509
67.165 7.6539
67.170 7.524185
67.175 7.939551
67.180 8.614703
67.185 9.096654
67.190 9.339167
67.195 9.53441
67.200 9.318617
67.205 9.285968
67.210 8.706261
67.215 8.54
67.220 8.456661
67.225 8.118577
67.230 8.083629
67.235 7.960147
67.240 7.604411
67.245 7.64889
67.250 7.171891
67.255 7.492825
67.260 7.983446
67.265 8.591259
67.270 9.018332
67.275 9.007587
67.280 9.173537
67.285 9.093665
67.290 8.561189
67.295 7.999445
67.300 7.60712
67.305 7.763413
67.310 8.221958
67.315 7.918087
67.320 8.353668
67.325 8.242346
67.330 8.258611
67.335 8.326384
67.340 8.006386
67.345 7.832113
67.350 8.131309
67.355 7.972393
67.360 8.209677
67.365 8.122076
67.370 8.004432
67.375 8.072673
67.380 8.451781
67.385 8.379241
67.390 7.988571
67.395 8.071066
67.400 8.161505
67.405 8.26975
67.410 8.375406
67.415 8.026824
67.420 8.198502
67.425 8.454764
67.430 8.296497
67.435 8.219795
67.440 8.078178
67.445 7.89466
67.450 7.853965
67.455 7.612148
67.460 7.495495
67.465 7.714453
67.470 7.938794
67.475 7.91434
67.480 7.913964
67.485 7.84118
67.490 8.103075
67.495 8.484423
67.500 8.563471
67.505 8.507336
67.510 8.536895
67.515 8.572631
67.520 8.960734
67.525 8.855891
67.530 8.760061
67.535 8.758342
67.540 8.701884
67.545 8.932614
67.550 9.042324
67.555 8.487189
67.560 8.646117
67.565 8.472349
67.570 8.533667
67.575 8.614666
67.580 8.288931
67.585 8.140049
67.590 8.370988
67.595 8.604823
67.600 8.627798
67.605 8.330879
67.610 8.107472
67.615 8.327989
67.620 8.782027
67.625 9.036662
67.630 9.134689
67.635 9.113449
67.640 9.261261
67.645 9.250255
67.650 9.067059
67.655 8.675261
67.660 8.582927
67.665 8.713994
67.670 8.422272
67.675 8.644645
67.680 8.912008
67.685 8.935902
67.690 8.897611
67.695 8.654825
67.700 8.283392
67.705 8.553253
67.710 8.124774
67.715 7.880357
67.720 8.144068
67.725 8.236911
67.730 8.049506
67.735 7.982327
67.740 8.005574
67.745 8.470582
67.750 8.758722
67.755 8.470903
67.760 8.631723
67.765 8.994342
67.770 9.345634
67.775 9.650128
67.780 9.360925
67.785 9.282845
67.790 9.264469
67.795 8.789558
67.800 8.570195
67.805 8.348971
67.810 8.03969
67.815 8.261504
67.820 8.484986
67.825 8.893527
67.830 9.474966
67.835 9.476647
67.840 9.365034
67.845 9.662365
67.850 9.413871
67.855 9.328342
67.860 9.332278
67.865 9.398686
67.870 9.466658
67.875 9.623947
67.880 9.432399
67.885 9.365688
67.890 9.258722
67.895 9.102849
67.900 9.731065
67.905 10.245492
67.910 10.342785
67.915 10.366886
67.920 10.520383
67.925 10.675617
67.930 10.764762
67.935 10.118764
67.940 9.793821
67.945 9.451284
67.950 9.512794
67.955 9.409904
67.960 9.421893
67.965 9.221245
67.970 9.242359
67.975 9.74616
67.980 10.277101
67.985 10.357605
67.990 10.263907
67.995 9.999253
68.000 9.764894
68.005 9.701162
68.010 9.468216
68.015 9.276325
68.020 9.195347
68.025 9.301721
68.030 9.482575
68.035 9.601297
68.040 9.71983
68.045 9.604902
68.050 9.602407
68.055 9.985169
68.060 9.882035
68.065 9.618015
68.070 9.366646
68.075 8.875207
68.080 8.515079
68.085 8.051306
68.090 7.691866
68.095 7.747431
68.100 7.95421
68.105 8.322068
68.110 8.323496
68.115 8.551985
68.120 8.722693
68.125 8.704247
68.130 8.744704
68.135 8.721846
68.140 8.648057
68.145 8.953889
68.150 9.07996
68.155 9.233677
68.160 9.399275
68.165 9.365271
68.170 9.577496
68.175 9.489789
68.180 9.378312
68.185 9.349257
68.190 9.065652
68.195 9.193357
68.200 9.226824
68.205 9.10114
68.210 8.887771
68.215 8.835754
68.220 8.73462
68.225 8.496605
68.230 8.31934
68.235 8.178452
68.240 8.088155
68.245 8.070035
68.250 7.636432
68.255 7.646167
68.260 8.183671
68.265 8.196249
68.270 7.91297
68.275 7.575851
68.280 7.668025
68.285 8.226047
68.290 8.409403
68.295 8.050756
68.300 7.740076
68.305 7.991202
68.310 8.658295
68.315 8.723877
68.320 8.10411
68.325 7.866839
68.330 8.163098
68.335 8.652455
68.340 8.634253
68.345 8.347449
68.350 8.632848
68.355 9.105692
68.360 8.9824
68.365 8.60229
68.370 8.351379
68.375 8.086522
68.380 7.936897
68.385 7.671001
68.390 7.568478
68.395 7.710668
68.400 7.725946
68.405 7.763019
68.410 7.947062
68.415 8.064071
68.420 8.304935
68.425 8.492426
68.430 8.410113
68.435 8.655088
68.440 8.944302
68.445 8.843202
68.450 8.575377
68.455 8.22123
68.460 8.176502
68.465 8.264135
68.470 8.305055
68.475 8.060997
68.480 8.556981
68.485 8.858397
68.490 8.943994
68.495 8.997041
68.500 8.824552
68.505 8.451745
68.510 8.429828
68.515 7.85338
68.520 7.760272
68.525 7.582837
68.530 7.642183
68.535 7.87079
68.540 7.877174
68.545 7.709255
68.550 7.91383
68.555 8.285103
68.560 8.622463
68.565 8.179147
68.570 7.812909
68.575 7.909805
68.580 8.19985
68.585 8.11696
68.590 8.022731
68.595 8.112569
68.600 8.322737
68.605 8.458818
68.610 8.463192
68.615 8.903943
68.620 8.927421
68.625 8.832218
68.630 9.045272
68.635 9.517856
68.640 9.689943
68.645 9.900058
68.650 9.865036
68.655 9.815433
68.660 9.849154
68.665 9.779161
68.670 9.629111
68.675 9.807859
68.680 9.342986
68.685 9.513865
68.690 9.537213
68.695 9.20037
68.700 8.795379
68.705 8.658947
68.710 8.438378
68.715 8.19201
68.720 7.607151
68.725 7.518577
68.730 7.748797
68.735 7.928014
68.740 7.81921
68.745 7.741996
68.750 8.329643
68.755 8.846361
68.760 9.030713
68.765 8.877337
68.770 8.979524
68.775 9.355229
68.780 9.499478
68.785 8.933308
68.790 8.846586
68.795 8.65438
68.800 8.537791
68.805 8.114408
68.810 7.929068
68.815 8.061969
68.820 8.243965
68.825 8.194245
68.830 7.867604
68.835 7.903609
68.840 7.66826
68.845 7.59801
68.850 7.921255
68.855 7.996666
68.860 7.735861
68.865 8.096896
68.870 7.996132
68.875 8.615513
68.880 9.067973
68.885 8.897054
68.890 9.247214
68.895 9.388988
68.900 9.603579
68.905 9.818773
68.910 9.392137
68.915 9.011821
68.920 8.633133
68.925 8.450854
68.930 8.406255
68.935 8.303127
68.940 8.637182
68.945 8.682462
68.950 8.150229
68.955 8.025084
68.960 8.006872
68.965 8.01101
68.970 8.286213
68.975 8.245234
68.980 8.420216
68.985 8.97119
68.990 9.392926
68.995 9.580791
69.000 9.453237
69.005 9.205191
69.010 9.065441
69.015 9.092813
69.020 9.256883
69.025 9.064954
69.030 8.929427
69.035 9.294003
69.040 9.169235
69.045 9.41495
69.050 9.372412
69.055 9.436552
69.060 9.762176
69.065 9.70843
69.070 9.27535
69.075 9.382577
69.080 9.133211
69.085 9.523746
69.090 9.288437
69.095 8.961021
69.100 9.106811
69.105 9.49547
69.110 9.719155
69.115 9.616731
69.120 9.013618
69.125 8.873012
69.130 8.831743
69.135 8.435325
69.140 8.608978
69.145 9.029646
69.150 9.107022
69.155 9.063461
69.160 9.087178
69.165 9.152314
69.170 9.325509
69.175 8.487627
69.180 8.093045
69.185 7.859185
69.190 7.710693
69.195 7.589931
69.200 7.343288
69.205 7.47192
69.210 8.142461
69.215 8.248383
69.220 8.698436
69.225 8.837335
69.230 8.904824
69.235 9.212035
69.240 9.017331
69.245 8.665344
69.250 8.800171
69.255 8.347733
69.260 8.457568
69.265 8.518276
69.270 8.654976
69.275 8.862694
69.280 8.614032
69.285 8.300693
69.290 8.234252
69.295 7.994807
69.300 8.087167
69.305 7.73795
69.310 7.088531
69.315 7.006319
69.320 7.179624
69.325 7.759207
69.330 8.04828
69.335 7.989319
69.340 8.010859
69.345 8.371917
69.350 8.409001
69.355 8.260668
69.360 7.957587
69.365 8.092297
69.370 7.9317
69.375 7.87406
69.380 7.58894
69.385 7.207387
69.390 7.530432
69.395 7.341157
69.400 6.882628
69.405 7.205483
69.410 7.341786
69.415 7.408123
69.420 7.310631
69.425 6.989516
69.430 7.107664
69.435 7.248748
69.440 6.918878
69.445 6.801868
69.450 7.300756
69.455 7.735583
69.460 8.183097
69.465 8.276151
69.470 8.22858
69.475 7.907721
69.480 7.765234
69.485 7.504713
69.490 7.120441
69.495 6.467936
69.500 6.084113
69.505 6.514461
69.510 7.053792
69.515 7.470151
69.520 7.561116
69.525 7.690598
69.530 8.083519
69.535 8.398712
69.540 8.354104
69.545 8.438588
69.550 8.47103
69.555 8.282082
69.560 8.460118
69.565 8.71834
69.570 8.841695
69.575 8.927934
69.580 8.507956
69.585 8.276958
69.590 8.153116
69.595 7.919191
69.600 7.748439
69.605 7.692211
69.610 7.269008
69.615 7.471426
69.620 7.779193
69.625 8.077735
69.630 8.06915
69.635 7.815807
69.640 7.906927
69.645 7.891593
69.650 7.816713
69.655 7.869416
69.660 8.112939
69.665 7.96997
69.670 7.901757
69.675 7.968548
69.680 8.111151
69.685 8.036653
69.690 7.888089
69.695 7.620267
69.700 8.116289
69.705 8.185768
69.710 8.075963
69.715 8.058953
69.720 8.329318
69.725 8.310082
69.730 8.320347
69.735 8.400852
69.740 8.381308
69.745 8.832687
69.750 9.158072
69.755 9.07596
69.760 9.242252
69.765 9.262939
69.770 9.28749
69.775 9.338764
69.780 9.123468
69.785 9.089705
69.790 8.96995
69.795 8.968025
69.800 8.715869
69.805 8.726134
69.810 9.208097
69.815 9.06531
69.820 8.807161
69.825 8.673981
69.830 8.604441
69.835 8.678327
69.840 8.365339
69.845 7.882167
69.850 7.75228
69.855 7.71837
69.860 8.186457
69.865 8.029603
69.870 8.456921
69.875 8.523487
69.880 8.713093
69.885 9.047674
69.890 8.989999
69.895 9.145499
69.900 9.353835
69.905 9.117671
69.910 9.213118
69.915 8.839727
69.920 9.022432
69.925 8.983974
69.930 8.563275
69.935 8.490996
69.940 8.429847
69.945 8.548156
69.950 8.483052
69.955 8.383119
69.960 8.581765
69.965 8.516183
69.970 8.304763
69.975 8.428328
69.980 8.252941
69.985 8.482296
69.990 8.616464
69.995 8.631503
70.000 8.709003
70.005 8.458457
70.010 8.431648
70.015 8.829815
70.020 8.714648
70.025 8.634683
70.030 8.419708
70.035 8.60813
70.040 8.514361
70.045 8.572615
70.050 8.25375
70.055 8.080611
70.060 8.003709
70.065 8.142647
70.070 8.637979
70.075 8.996781
70.080 8.797418
70.085 8.505226
70.090 8.207005
70.095 8.078638
70.100 8.175137
70.105 7.843054
70.110 7.571775
70.115 7.906327
70.120 8.033597
70.125 8.161291
70.130 8.216418
70.135 8.128578
70.140 8.282192
70.145 8.242696
70.150 7.988884
70.155 8.078553
70.160 8.111626
70.165 8.617621
70.170 8.743876
70.175 8.788445
70.180 8.738285
70.185 8.766089
70.190 9.060641
70.195 9.177331
70.200 9.030082
70.205 9.198935
70.210 8.759951
70.215 9.141734
70.220 9.342641
70.225 9.39252
70.230 9.11675
70.235 8.636105
70.240 8.585775
70.245 8.659057
70.250 8.404957
70.255 8.515786
70.260 8.594267
70.265 8.735559
70.270 9.442584
70.275 9.481179
70.280 9.858588
70.285 9.953536
70.290 9.692611
70.295 9.98024
70.300 10.138841
70.305 9.652175
70.310 9.956971
70.315 9.839842
70.320 10.134533
70.325 10.223781
70.330 10.118827
70.335 9.93278
70.340 9.813573
70.345 9.351467
70.350 9.391584
70.355 9.557478
70.360 9.617871
70.365 9.557635
70.370 9.289161
70.375 9.047333
70.380 9.106288
70.385 8.91043
70.390 8.695371
70.395 8.800278
70.400 8.718576
70.405 9.356906
70.410 9.624546
70.415 9.540409
70.420 9.408667
70.425 9.167715
70.430 8.621897
70.435 8.630458
70.440 8.198941
70.445 8.05565
70.450 7.937224
70.455 7.795391
70.460 7.522136
70.465 7.721957
70.470 7.75329
70.475 7.795779
70.480 8.18646
70.485 8.54009
70.490 8.707576
70.495 8.852657
70.500 9.02103
70.505 8.931365
70.510 9.014176
70.515 9.096293
70.520 9.004798
70.525 9.033675
70.530 8.867465
70.535 8.780434
70.540 8.767168
70.545 9.017026
70.550 9.032117
70.555 8.607553
70.560 8.507364
70.565 8.93659
70.570 9.169004
70.575 9.203731
70.580 8.663989
70.585 8.894763
70.590 9.386359
70.595 9.232105
70.600 8.760631
70.605 8.185461
70.610 8.040349
70.615 7.747578
70.620 7.276468
70.625 7.500999
70.630 7.742415
70.635 8.406169
70.640 8.720315
70.645 8.950613
70.650 9.112157
70.655 9.807004
70.660 10.142996
70.665 10.05267
70.670 9.523446
70.675 9.65254
70.680 9.701615
70.685 9.95186
70.690 9.641401
70.695 9.156356
70.700 9.062037
70.705 9.11701
70.710 9.282825
70.715 9.176325
70.720 8.651187
70.725 8.314286
70.730 8.728219
70.735 9.006007
70.740 8.835805
70.745 8.451489
70.750 8.365044
70.755 8.951173
70.760 8.876638
70.765 8.860411
70.770 8.843554
70.775 9.282901
70.780 9.503011
70.785 9.599858
70.790 9.423339
70.795 9.389311
70.800 9.30299
70.805 9.52472
70.810 9.559364
70.815 9.470347
70.820 9.779889
70.825 9.577073
70.830 9.227891
70.835 9.012624
70.840 8.627025
70.845 8.626327
70.850 8.529096
70.855 8.318795
70.860 8.256603
70.865 8.602161
70.870 8.542988
70.875 8.305099
70.880 7.951203
70.885 8.100536
70.890 8.202434
70.895 8.285791
70.900 8.403847
70.905 8.462115
70.910 8.539251
70.915 8.650244
70.920 8.331275
70.925 8.266526
70.930 8.224603
70.935 7.887975
70.940 7.894984
70.945 8.093283
70.950 7.851907
70.955 7.790144
70.960 7.795591
70.965 8.004358
70.970 8.099747
70.975 8.131679
70.980 8.510539
70.985 8.949543
70.990 9.225603
70.995 9.435836
71.000 9.201878
71.005 9.580744
71.010 9.63126
71.015 9.325694
71.020 8.897576
71.025 8.424037
71.030 8.467047
71.035 8.340088
71.040 8.22761
71.045 8.411353
71.050 8.554676
71.055 8.778213
71.060 8.815172
71.065 8.569305
71.070 8.670368
71.075 8.354431
71.080 8.155994
71.085 8.493051
71.090 8.272686
71.095 8.580037
71.100 8.421596
71.105 8.353345
71.110 8.334348
71.115 8.204148
71.120 8.285313
71.125 8.443047
71.130 8.264685
71.135 8.649216
71.140 8.527576
71.145 8.385719
71.150 8.301656
71.155 8.184205
71.160 8.117898
71.165 8.097286
71.170 8.052893
71.175 8.364325
71.180 8.376933
71.185 8.249393
71.190 7.939232
71.195 7.806502
71.200 7.665803
71.205 7.126159
71.210 6.907378
71.215 6.908314
71.220 6.956903
71.225 7.11435
71.230 7.466144
71.235 7.723657
71.240 8.107476
71.245 7.963242
71.250 7.72303
71.255 7.701951
71.260 7.305687
71.265 7.407972
71.270 7.396485
71.275 7.730764
71.280 7.928248
71.285 8.284181
71.290 8.579744
71.295 8.772801
71.300 8.547847
71.305 8.44951
71.310 8.276242
71.315 8.192173
71.320 8.250177
71.325 8.054884
71.330 8.145098
71.335 8.298082
71.340 8.212572
71.345 8.224309
71.350 8.569026
71.355 8.426115
71.360 8.558042
71.365 8.614936
71.370 8.68946
71.375 8.476231
71.380 8.509602
71.385 8.660827
71.390 8.898449
71.395 8.684363
71.400 8.563225
71.405 9.130654
71.410 9.417229
71.415 9.333029
71.420 8.775444
71.425 8.532913
71.430 8.445004
71.435 8.355457
71.440 8.386487
71.445 8.11831
71.450 8.410525
71.455 8.643102
71.460 8.888986
71.465 8.912774
71.470 8.307821
71.475 7.970854
71.480 7.909461
71.485 7.663131
71.490 7.972703
71.495 7.554923
71.500 7.833428
71.505 8.032713
71.510 8.257212
71.515 8.251937
71.520 8.420085
71.525 8.312236
71.530 8.660517
71.535 8.480414
71.540 8.585794
71.545 8.221403
71.550 8.138013
71.555 7.848706
71.560 7.713494
71.565 7.423499
71.570 7.094469
71.575 7.13623
71.580 7.478298
71.585 7.861588
71.590 8.041011
71.595 8.164533
71.600 8.305915
71.605 8.459189
71.610 8.324803
71.615 7.821985
71.620 6.95791
71.625 6.640862
71.630 6.876979
71.635 7.352949
71.640 7.199811
71.645 7.006048
71.650 7.405824
71.655 7.996176
71.660 8.330795
71.665 7.988258
71.670 7.754501
71.675 8.120314
71.680 8.281527
71.685 8.081814
71.690 7.900244
71.695 7.719098
71.700 8.042989
71.705 8.018877
71.710 7.714864
71.715 7.592386
71.720 7.757151
71.725 7.557204
71.730 7.60943
71.735 7.454093
71.740 7.808676
71.745 8.710215
71.750 8.884352
71.755 8.985194
71.760 9.007671
71.765 8.864628
71.770 8.919618
71.775 8.664211
71.780 8.507999
71.785 8.129266
71.790 7.984881
71.795 8.041814
71.800 8.187351
71.805 7.951999
71.810 7.8247
71.815 7.926103
71.820 8.719117
71.825 8.668458
71.830 9.153671
71.835 9.061626
71.840 9.333131
71.845 9.317716
71.850 8.896766
71.855 8.992988
71.860 9.501353
71.865 9.456926
71.870 9.663943
71.875 9.994455
71.880 9.806221
71.885 9.831336
71.890 9.434616
71.895 8.768112
71.900 8.249002
71.905 7.880831
71.910 7.418657
71.915 7.65555
71.920 7.858369
71.925 7.628717
71.930 7.815938
71.935 8.213814
71.940 8.364542
71.945 8.366866
71.950 8.063697
71.955 7.754506
71.960 8.415338
71.965 8.673804
71.970 8.613813
71.975 8.065359
71.980 8.079653
71.985 8.062169
71.990 7.833896
71.995 7.496485
72.000 7.314146
72.005 7.436054
72.010 8.306886
72.015 8.39534
72.020 8.354103
72.025 8.017156
72.030 7.974524
72.035 8.35525
72.040 8.420966
72.045 7.707012
72.050 7.953116
72.055 8.082792
72.060 8.407861
72.065 8.282177
72.070 7.945549
72.075 7.864727
72.080 7.969881
72.085 7.557611
72.090 7.900802
72.095 8.269349
72.100 8.363604
72.105 8.371254
72.110 8.507772
72.115 9.036731
72.120 9.528752
72.125 9.415409
72.130 9.02527
72.135 8.999899
72.140 8.817604
72.145 8.474311
72.150 8.08919
72.155 7.797647
72.160 7.76363
72.165 7.470339
72.170 7.049986
72.175 7.145226
72.180 7.442905
72.185 7.184703
72.190 6.98252
72.195 7.099266
72.200 7.298473
72.205 7.520436
72.210 7.338597
72.215 6.908053
72.220 7.181322
72.225 7.43731
72.230 7.235221
72.235 7.289592
72.240 7.546575
72.245 7.763113
72.250 8.518181
72.255 8.520026
72.260 7.93697
72.265 8.143008
72.270 7.934107
72.275 7.981826
72.280 7.917916
72.285 7.398657
72.290 7.187924
72.295 7.348449
72.300 7.19558
72.305 7.206298
72.310 6.907451
72.315 7.288704
72.320 7.822792
72.325 8.034945
72.330 8.474706
72.335 8.521914
72.340 8.582631
72.345 8.416686
72.350 7.92676
72.355 7.9103
72.360 7.943316
72.365 7.489721
72.370 7.394521
72.375 7.629331
72.380 7.703667
72.385 7.797841
72.390 7.507214
72.395 7.735333
72.400 8.043613
72.405 8.185308
72.410 8.501478
72.415 8.681552
72.420 8.670812
72.425 9.025653
72.430 8.757746
72.435 8.850173
72.440 8.578402
72.445 8.219663
72.450 8.628965
72.455 8.559341
72.460 8.104202
72.465 8.081532
72.470 8.103592
72.475 8.885488
72.480 9.050208
72.485 8.799984
72.490 9.206286
72.495 9.229818
72.500 9.413129
72.505 9.071093
72.510 8.10408
72.515 8.341492
72.520 8.024036
72.525 7.82223
72.530 7.888868
72.535 8.111962
72.540 8.157905
72.545 7.947986
72.550 7.691102
72.555 7.928606
72.560 8.195352
72.565 8.320066
72.570 8.434259
72.575 8.772671
72.580 9.152865
72.585 9.082479
72.590 8.864726
72.595 8.572302
72.600 8.51191
72.605 8.364626
72.610 8.560316
72.615 8.590919
72.620 8.932475
72.625 9.129726
72.630 8.913095
72.635 8.74675
72.640 8.247311
72.645 8.058792
72.650 7.795722
72.655 7.510461
72.660 7.83695
72.665 7.514521
72.670 7.623353
72.675 7.628097
72.680 7.670434
72.685 7.834678
72.690 7.919892
72.695 8.201135
72.700 8.563512
72.705 8.717357
72.710 8.559147
72.715 8.681354
72.720 9.12485
72.725 9.605787
72.730 9.693752
72.735 9.348215
72.740 9.37513
72.745 9.286038
72.750 8.808161
72.755 8.020486
72.760 7.747998
72.765 7.813937
72.770 7.985024
72.775 8.098686
72.780 8.396158
72.785 8.868104
72.790 8.604708
72.795 8.294909
72.800 8.563113
72.805 8.779054
72.810 8.8018
72.815 8.657564
72.820 8.621177
72.825 8.215421
72.830 8.156852
72.835 7.814757
72.840 7.384261
72.845 7.424741
72.850 7.569247
72.855 7.387334
72.860 7.45946
72.865 7.501594
72.870 7.759027
72.875 7.838616
72.880 7.898222
72.885 7.334696
72.890 7.885526
72.895 8.122438
72.900 7.829459
72.905 7.754069
72.910 7.955164
72.915 8.011844
72.920 8.198897
72.925 7.994404
72.930 8.308532
72.935 8.428821
72.940 8.357843
72.945 8.247244
72.950 8.173642
72.955 8.112007
72.960 7.789497
72.965 7.594903
72.970 7.545107
72.975 7.762121
72.980 7.796912
72.985 8.020684
72.990 7.90821
72.995 7.630149
73.000 7.26279
