!@!!GADDS PLOTSO FILE: Chi integration type
!@!!Title/SampleName: map-178
!@!!Comment: ?
!@!!User: Bruker Instrument Administrator
!@!!Site: University of Illinois Chicago
!@!!Frame: map-178_01_000.gfrm
!@!!Wavelengths    1.54184   1.54056   1.54439
!@!!Frame angles: 2Theta: 63.000 Omega: 50.000 Phi: 0.000 Chi: 90.000
!@!!Integration range: 2Theta: 53.000 to 73.000  Gamma: -105.000 to -75.000
!@!!Integration method: bin normalized
!@!N
!@!SS
!@!M
!@!L 0.0 0.0 0.0 0.0
!@!XDegrees
!@!YCounts
53.000 4.835192
53.005 4.880638
53.010 5.077174
53.015 4.888793
53.020 4.78994
53.025 5.112898
53.030 5.217276
53.035 5.612698
53.040 5.696443
53.045 5.40662
53.050 5.848818
53.055 5.858843
53.060 5.698961
53.065 5.813916
53.070 5.526443
53.075 5.609789
53.080 5.717703
53.085 5.675991
53.090 5.746441
53.095 6.186318
53.100 6.178625
53.105 6.438641
53.110 6.832268
53.115 7.28021
53.120 7.091976
53.125 7.102214
53.130 6.600103
53.135 6.170032
53.140 5.834185
53.145 5.50523
53.150 5.557361
53.155 5.846525
53.160 5.799761
53.165 5.946183
53.170 5.982586
53.175 5.87059
53.180 5.820403
53.185 5.596713
53.190 5.21848
53.195 5.074742
53.200 5.143794
53.205 5.101362
53.210 5.055866
53.215 4.528578
53.220 4.118616
53.225 4.604835
53.230 4.842551
53.235 4.633611
53.240 4.595907
53.245 4.783036
53.250 5.473179
53.255 5.767951
53.260 5.467942
53.265 5.161904
53.270 5.312014
53.275 5.642008
53.280 5.648186
53.285 5.618332
53.290 5.642417
53.295 6.058639
53.300 6.257012
53.305 6.368391
53.310 6.188175
53.315 6.063163
53.320 6.023988
53.325 5.769433
53.330 5.745356
53.335 5.615983
53.340 5.442626
53.345 5.496671
53.350 5.325187
53.355 5.724834
53.360 5.711284
53.365 5.678415
53.370 5.705924
53.375 5.709598
53.380 5.8979
53.385 5.506659
53.390 5.07907
53.395 5.4554
53.400 5.833998
53.405 5.785945
53.410 6.165498
53.415 6.288586
53.420 6.636513
53.425 6.681401
53.430 6.378755
53.435 6.331673
53.440 6.255856
53.445 6.026453
53.450 6.18209
53.455 6.258046
53.460 6.441889
53.465 6.57668
53.470 6.303248
53.475 6.320294
53.480 6.367804
53.485 6.18471
53.490 5.851487
53.495 5.596625
53.500 5.50747
53.505 5.889122
53.510 6.183425
53.515 6.186272
53.520 5.998081
53.525 6.173686
53.530 6.700339
53.535 6.7855
53.540 6.782091
53.545 6.919178
53.550 7.095992
53.555 7.213157
53.560 7.339478
53.565 7.107574
53.570 6.986411
53.575 6.740169
53.580 6.138951
53.585 6.146379
53.590 6.489632
53.595 6.227189
53.600 5.927647
53.605 5.762514
53.610 5.986509
53.615 6.14126
53.620 6.110519
53.625 6.09825
53.630 6.05891
53.635 6.327308
53.640 6.374041
53.645 6.201812
53.650 5.990343
53.655 5.779215
53.660 5.67938
53.665 5.830638
53.670 6.031995
53.675 5.967204
53.680 6.139248
53.685 6.229142
53.690 6.249576
53.695 6.040395
53.700 6.166461
53.705 6.143285
53.710 5.966008
53.715 6.02032
53.720 5.913167
53.725 5.984076
53.730 6.025605
53.735 5.724744
53.740 5.77099
53.745 5.918301
53.750 5.780852
53.755 5.767082
53.760 5.842315
53.765 6.163467
53.770 6.196533
53.775 6.181637
53.780 5.95962
53.785 5.961057
53.790 5.943911
53.795 5.580911
53.800 5.462552
53.805 5.629819
53.810 5.664311
53.815 5.834979
53.820 5.998568
53.825 5.901326
53.830 5.668008
53.835 5.342693
53.840 5.258869
53.845 5.37543
53.850 5.331
53.855 5.449767
53.860 5.621617
53.865 5.814384
53.870 5.989408
53.875 5.903605
53.880 6.183446
53.885 6.181168
53.890 6.445912
53.895 6.988336
53.900 7.014728
53.905 7.220737
53.910 7.104359
53.915 6.941146
53.920 6.786403
53.925 6.184976
53.930 5.681802
53.935 5.590995
53.940 5.322253
53.945 5.42277
53.950 5.228814
53.955 5.310283
53.960 5.654388
53.965 6.035954
53.970 6.243725
53.975 6.16664
53.980 6.446179
53.985 6.635943
53.990 6.566449
53.995 6.556678
54.000 6.273345
54.005 6.446514
54.010 6.485969
54.015 5.983546
54.020 5.844012
54.025 6.206839
54.030 6.162594
54.035 6.053134
54.040 5.744385
54.045 5.785543
54.050 5.90281
54.055 6.07641
54.060 6.032052
54.065 6.069649
54.070 6.276202
54.075 6.198049
54.080 6.033121
54.085 6.22064
54.090 5.950316
54.095 5.838138
54.100 5.778965
54.105 5.855786
54.110 6.056424
54.115 6.340746
54.120 6.132321
54.125 5.861494
54.130 5.464582
54.135 5.563668
54.140 5.534763
54.145 5.399821
54.150 5.236515
54.155 5.451061
54.160 6.254794
54.165 6.570496
54.170 6.589862
54.175 6.588304
54.180 6.30458
54.185 6.192795
54.190 5.805906
54.195 5.531457
54.200 5.815368
54.205 5.624023
54.210 5.904998
54.215 6.179833
54.220 6.34302
54.225 6.56898
54.230 6.658638
54.235 6.793229
54.240 6.438019
54.245 6.520453
54.250 6.587383
54.255 6.766018
54.260 6.508926
54.265 6.005575
54.270 5.855178
54.275 5.97402
54.280 5.708719
54.285 5.561701
54.290 5.855646
54.295 6.018013
54.300 6.398428
54.305 6.321546
54.310 6.187854
54.315 6.366575
54.320 6.326329
54.325 5.929088
54.330 6.173509
54.335 6.057369
54.340 6.420613
54.345 6.393747
54.350 6.283465
54.355 6.276736
54.360 6.218025
54.365 5.779077
54.370 5.80131
54.375 5.628002
54.380 5.712635
54.385 5.620982
54.390 5.509263
54.395 5.468606
54.400 5.529179
54.405 5.493983
54.410 5.613587
54.415 5.881935
54.420 6.218295
54.425 6.467135
54.430 6.585973
54.435 6.598954
54.440 6.323946
54.445 6.163679
54.450 5.770468
54.455 5.553677
54.460 5.434855
54.465 5.266196
54.470 5.712801
54.475 6.195827
54.480 6.340487
54.485 6.132926
54.490 5.944097
54.495 6.171311
54.500 6.547098
54.505 6.475302
54.510 5.951811
54.515 5.930729
54.520 6.078921
54.525 5.941183
54.530 5.660054
54.535 5.416903
54.540 5.455242
54.545 5.560633
54.550 5.862354
54.555 6.156327
54.560 6.298486
54.565 6.314134
54.570 6.27224
54.575 5.944721
54.580 6.200102
54.585 6.228344
54.590 6.667365
54.595 6.782766
54.600 6.738779
54.605 6.812412
54.610 6.515107
54.615 6.602619
54.620 6.596558
54.625 6.36672
54.630 6.324448
54.635 6.531338
54.640 6.71085
54.645 7.412961
54.650 7.293327
54.655 7.112985
54.660 6.904446
54.665 7.121202
54.670 7.078022
54.675 6.92517
54.680 6.423027
54.685 6.201246
54.690 6.420182
54.695 6.2067
54.700 5.820436
54.705 5.68211
54.710 5.684645
54.715 5.604371
54.720 5.327329
54.725 5.133589
54.730 5.267362
54.735 5.084325
54.740 5.175963
54.745 5.233878
54.750 5.651961
54.755 5.714159
54.760 5.727633
54.765 5.847304
54.770 6.167264
54.775 6.041841
54.780 6.426217
54.785 6.305825
54.790 6.544301
54.795 6.507462
54.800 6.004408
54.805 6.082497
54.810 6.037288
54.815 5.950765
54.820 6.000543
54.825 6.16376
54.830 6.293515
54.835 6.378533
54.840 6.060941
54.845 5.766187
54.850 5.397169
54.855 5.068212
54.860 5.043898
54.865 5.349613
54.870 5.758292
54.875 5.704755
54.880 6.265374
54.885 6.818287
54.890 6.937569
54.895 6.719327
54.900 6.768506
54.905 6.536351
54.910 6.747308
54.915 6.535437
54.920 6.374163
54.925 6.462413
54.930 6.645862
54.935 6.266922
54.940 6.446859
54.945 6.545466
54.950 6.569156
54.955 6.344941
54.960 6.334142
54.965 6.326556
54.970 6.965958
54.975 7.403673
54.980 7.39946
54.985 7.752834
54.990 7.817651
54.995 8.026073
55.000 8.05423
55.005 7.754258
55.010 7.437745
55.015 6.98853
55.020 6.572778
55.025 6.532972
55.030 6.38807
55.035 5.969602
55.040 5.735978
55.045 5.522241
55.050 6.075653
55.055 6.3865
55.060 6.360538
55.065 6.324862
55.070 6.403307
55.075 6.705351
55.080 7.004701
55.085 6.507309
55.090 6.471552
55.095 6.404368
55.100 6.49198
55.105 6.639417
55.110 6.514579
55.115 6.212523
55.120 5.994088
55.125 6.020934
55.130 6.177378
55.135 6.358285
55.140 6.373222
55.145 6.175229
55.150 6.596576
55.155 6.757189
55.160 6.704132
55.165 6.720656
55.170 6.744779
55.175 6.926215
55.180 7.225834
55.185 7.353743
55.190 7.681652
55.195 7.740577
55.200 7.628987
55.205 7.593397
55.210 7.416354
55.215 7.593437
55.220 7.596938
55.225 7.091656
55.230 6.731425
55.235 6.502246
55.240 6.330774
55.245 6.128614
55.250 5.620529
55.255 5.234631
55.260 5.377142
55.265 5.111593
55.270 5.301195
55.275 5.36414
55.280 5.517087
55.285 5.835172
55.290 6.0327
55.295 5.913775
55.300 5.893881
55.305 5.953161
55.310 5.724626
55.315 5.478534
55.320 5.370952
55.325 5.62208
55.330 6.049464
55.335 6.17676
55.340 6.270284
55.345 6.434358
55.350 6.482874
55.355 6.284593
55.360 6.075052
55.365 5.9118
55.370 5.935664
55.375 5.884766
55.380 5.891524
55.385 5.916584
55.390 5.972131
55.395 6.027372
55.400 6.068161
55.405 5.918447
55.410 5.970862
55.415 5.980027
55.420 6.087053
55.425 5.939068
55.430 5.584367
55.435 5.84589
55.440 5.848546
55.445 5.793631
55.450 5.637179
55.455 5.656006
55.460 5.857354
55.465 6.138489
55.470 5.897835
55.475 6.077899
55.480 6.097622
55.485 6.130804
55.490 6.109107
55.495 6.139587
55.500 6.334537
55.505 6.126076
55.510 5.783531
55.515 5.814415
55.520 5.918442
55.525 5.965873
55.530 5.655813
55.535 5.466893
55.540 5.508928
55.545 5.747515
55.550 5.695984
55.555 5.543822
55.560 5.473157
55.565 5.960802
55.570 6.229809
55.575 6.506669
55.580 6.305592
55.585 6.344082
55.590 6.568047
55.595 6.592726
55.600 6.313893
55.605 5.796327
55.610 5.843245
55.615 5.867548
55.620 6.051772
55.625 5.978684
55.630 6.045966
55.635 6.007062
55.640 6.188136
55.645 6.19604
55.650 6.214084
55.655 5.849056
55.660 5.679432
55.665 5.751328
55.670 5.751027
55.675 5.714529
55.680 5.447241
55.685 5.424813
55.690 5.440447
55.695 5.779241
55.700 5.743681
55.705 5.685781
55.710 5.776765
55.715 6.082107
55.720 6.495618
55.725 6.466547
55.730 6.423738
55.735 6.639167
55.740 6.751928
55.745 6.926047
55.750 6.795647
55.755 6.361638
55.760 6.423003
55.765 6.160237
55.770 5.740843
55.775 5.616948
55.780 5.453717
55.785 5.243729
55.790 5.244705
55.795 5.148179
55.800 5.117794
55.805 5.481899
55.810 5.609053
55.815 5.594901
55.820 5.81656
55.825 5.84808
55.830 6.071137
55.835 6.331438
55.840 6.014556
55.845 6.092356
55.850 5.857345
55.855 5.882175
55.860 5.895649
55.865 6.261731
55.870 6.045551
55.875 6.051855
55.880 5.951468
55.885 6.267158
55.890 6.115384
55.895 6.016513
55.900 5.866761
55.905 5.906524
55.910 6.23984
55.915 6.873667
55.920 7.048491
55.925 7.363877
55.930 7.391959
55.935 7.245635
55.940 6.994448
55.945 6.611317
55.950 6.361225
55.955 6.448903
55.960 6.621472
55.965 6.651945
55.970 6.990996
55.975 7.221312
55.980 7.178191
55.985 7.205208
55.990 6.786623
55.995 6.641152
56.000 6.506465
56.005 5.774414
56.010 6.066061
56.015 6.259785
56.020 6.425143
56.025 6.720978
56.030 7.079333
56.035 7.102521
56.040 7.44453
56.045 7.171226
56.050 6.496473
56.055 6.23504
56.060 5.886937
56.065 5.753488
56.070 6.026829
56.075 6.217605
56.080 6.165609
56.085 6.382617
56.090 6.412572
56.095 6.538693
56.100 6.504358
56.105 6.194049
56.110 6.087172
56.115 6.42445
56.120 6.625995
56.125 6.647112
56.130 6.4012
56.135 6.148603
56.140 6.159203
56.145 5.987412
56.150 5.961589
56.155 6.033975
56.160 5.932625
56.165 5.841586
56.170 6.027306
56.175 5.836102
56.180 5.962833
56.185 5.70836
56.190 5.767051
56.195 5.938025
56.200 6.113803
56.205 6.562086
56.210 6.877605
56.215 7.249075
56.220 7.25233
56.225 7.388897
56.230 7.488311
56.235 7.010148
56.240 6.775646
56.245 6.801438
56.250 6.739056
56.255 6.912346
56.260 6.627094
56.265 6.633807
56.270 6.78837
56.275 6.821582
56.280 6.630467
56.285 6.170546
56.290 5.960818
56.295 6.186355
56.300 6.274086
56.305 6.395284
56.310 6.590494
56.315 7.00654
56.320 7.387753
56.325 7.436054
56.330 7.545258
56.335 7.649413
56.340 7.536914
56.345 7.237077
56.350 6.855168
56.355 6.744239
56.360 6.600543
56.365 6.378264
56.370 6.369844
56.375 6.659235
56.380 7.013474
56.385 7.05357
56.390 6.790432
56.395 6.856856
56.400 7.002905
56.405 6.730244
56.410 6.480008
56.415 6.301639
56.420 6.09852
56.425 6.309473
56.430 6.224366
56.435 6.551696
56.440 6.779315
56.445 6.821343
56.450 6.816451
56.455 7.032531
56.460 7.476667
56.465 7.461883
56.470 7.292618
56.475 7.013137
56.480 7.006098
56.485 7.044371
56.490 6.921391
56.495 6.591026
56.500 6.697815
56.505 6.340397
56.510 6.338409
56.515 6.373058
56.520 6.321129
56.525 6.322483
56.530 6.431467
56.535 6.471888
56.540 6.837924
56.545 6.84715
56.550 6.669801
56.555 6.856886
56.560 6.674436
56.565 6.386693
56.570 6.252168
56.575 6.107042
56.580 6.345952
56.585 6.159393
56.590 5.940473
56.595 5.977127
56.600 6.053603
56.605 6.101739
56.610 6.15023
56.615 6.431221
56.620 6.822059
56.625 7.069872
56.630 7.336336
56.635 7.187368
56.640 7.212754
56.645 7.498056
56.650 7.299249
56.655 7.146226
56.660 6.959206
56.665 6.493817
56.670 6.68283
56.675 6.867186
56.680 6.724261
56.685 6.990287
56.690 7.58918
56.695 8.344162
56.700 9.134921
56.705 9.456844
56.710 9.573103
56.715 9.406509
56.720 9.149217
56.725 9.07839
56.730 8.836979
56.735 8.512079
56.740 8.130065
56.745 7.881201
56.750 8.270119
56.755 8.222426
56.760 8.218187
56.765 8.114134
56.770 7.760501
56.775 7.66153
56.780 7.431844
56.785 6.853334
56.790 6.741198
56.795 6.456808
56.800 6.202654
56.805 6.30022
56.810 6.380215
56.815 6.608397
56.820 6.582892
56.825 6.310851
56.830 5.94519
56.835 5.858169
56.840 5.871842
56.845 5.774521
56.850 5.659756
56.855 5.797213
56.860 6.060647
56.865 6.147447
56.870 6.70637
56.875 6.48689
56.880 6.541495
56.885 7.168211
56.890 7.139678
56.895 7.26931
56.900 7.134914
56.905 6.590724
56.910 7.029598
56.915 7.032175
56.920 6.482049
56.925 6.293448
56.930 6.080857
56.935 6.346534
56.940 6.404367
56.945 5.987309
56.950 6.161889
56.955 6.210592
56.960 6.281603
56.965 6.27106
56.970 6.008461
56.975 6.098527
56.980 6.034026
56.985 5.869434
56.990 5.78852
56.995 5.854305
57.000 6.147196
57.005 6.20881
57.010 6.706616
57.015 6.752145
57.020 6.661173
57.025 6.961786
57.030 7.013187
57.035 7.122332
57.040 7.518225
57.045 7.315312
57.050 7.444584
57.055 7.216728
57.060 6.853095
57.065 6.646819
57.070 6.317301
57.075 5.972989
57.080 5.762528
57.085 5.81267
57.090 6.208916
57.095 6.450712
57.100 6.6792
57.105 6.778385
57.110 7.242174
57.115 7.639272
57.120 7.479314
57.125 7.292889
57.130 7.217628
57.135 7.050701
57.140 7.070245
57.145 6.386296
57.150 6.08783
57.155 5.885401
57.160 5.738998
57.165 5.933366
57.170 6.232102
57.175 6.319991
57.180 6.425869
57.185 6.537094
57.190 6.609631
57.195 6.603159
57.200 6.522922
57.205 6.198391
57.210 6.284336
57.215 6.55997
57.220 6.406544
57.225 6.665269
57.230 6.653368
57.235 6.524592
57.240 6.777633
57.245 6.086235
57.250 5.680253
57.255 5.953442
57.260 5.755897
57.265 5.787396
57.270 5.676073
57.275 5.318145
57.280 5.872718
57.285 5.872104
57.290 5.855375
57.295 6.00985
57.300 6.094298
57.305 6.580472
57.310 6.688865
57.315 6.571783
57.320 6.564559
57.325 6.929437
57.330 7.038202
57.335 7.087725
57.340 6.8748
57.345 7.143492
57.350 7.679643
57.355 7.941864
57.360 7.610706
57.365 7.313082
57.370 7.126223
57.375 7.193299
57.380 7.254476
57.385 7.152657
57.390 7.331996
57.395 7.522616
57.400 7.542506
57.405 7.541111
57.410 7.652403
57.415 7.757346
57.420 7.665594
57.425 7.119583
57.430 7.165528
57.435 7.483193
57.440 7.605603
57.445 7.194367
57.450 6.864413
57.455 6.789787
57.460 7.084107
57.465 7.16586
57.470 7.061091
57.475 7.086925
57.480 7.516737
57.485 7.985802
57.490 7.952059
57.495 7.948876
57.500 7.899422
57.505 7.871962
57.510 7.732199
57.515 7.295552
57.520 7.002395
57.525 7.012701
57.530 6.870282
57.535 6.656845
57.540 6.455255
57.545 6.519084
57.550 6.371647
57.555 6.430379
57.560 6.36641
57.565 6.409901
57.570 6.645248
57.575 6.766804
57.580 6.472817
57.585 6.735071
57.590 6.589135
57.595 6.648405
57.600 6.88009
57.605 6.842297
57.610 6.770555
57.615 6.937237
57.620 7.119855
57.625 7.465602
57.630 7.473826
57.635 6.878221
57.640 6.658082
57.645 6.509829
57.650 6.39259
57.655 6.138191
57.660 5.638445
57.665 5.813656
57.670 6.435456
57.675 6.783241
57.680 6.947363
57.685 7.236071
57.690 7.280831
57.695 7.233252
57.700 6.996256
57.705 6.899128
57.710 7.234914
57.715 7.098447
57.720 6.943553
57.725 7.109924
57.730 7.40035
57.735 7.296862
57.740 6.83267
57.745 6.577859
57.750 6.687477
57.755 6.628301
57.760 6.50021
57.765 6.696198
57.770 6.781738
57.775 6.776323
57.780 6.763443
57.785 6.799942
57.790 6.766763
57.795 6.407533
57.800 6.211578
57.805 6.721781
57.810 7.13383
57.815 7.374914
57.820 7.282782
57.825 7.578594
57.830 7.856594
57.835 7.914876
57.840 7.229655
57.845 6.920921
57.850 6.671248
57.855 6.737037
57.860 6.656172
57.865 6.591255
57.870 6.595187
57.875 6.821031
57.880 7.138455
57.885 7.325578
57.890 7.248796
57.895 7.11874
57.900 7.092899
57.905 6.990945
57.910 7.006569
57.915 6.92708
57.920 6.971961
57.925 7.095985
57.930 7.345488
57.935 7.549015
57.940 7.525605
57.945 7.62698
57.950 7.146234
57.955 7.190703
57.960 7.188361
57.965 7.036481
57.970 6.701001
57.975 6.323851
57.980 5.985097
57.985 6.234034
57.990 5.907259
57.995 5.942346
58.000 6.037909
58.005 6.859334
58.010 7.409296
58.015 7.50272
58.020 7.16797
58.025 7.180398
58.030 6.995118
58.035 6.8797
58.040 6.366507
58.045 6.133165
58.050 6.136924
58.055 6.257154
58.060 6.490948
58.065 6.470696
58.070 6.498557
58.075 6.416468
58.080 6.380781
58.085 6.524338
58.090 6.732702
58.095 6.940659
58.100 7.207131
58.105 7.063273
58.110 7.449759
58.115 7.905704
58.120 7.688067
58.125 7.355547
58.130 7.135925
58.135 7.17243
58.140 7.617217
58.145 7.557547
58.150 7.405857
58.155 7.568446
58.160 7.648218
58.165 7.710202
58.170 7.437643
58.175 7.006532
58.180 6.446373
58.185 6.418132
58.190 6.707746
58.195 6.852053
58.200 6.675615
58.205 6.536053
58.210 6.537906
58.215 6.165759
58.220 6.082682
58.225 5.767381
58.230 5.847389
58.235 6.308791
58.240 6.642563
58.245 6.847538
58.250 7.342948
58.255 7.488085
58.260 8.108655
58.265 7.916227
58.270 7.712167
58.275 7.738654
58.280 8.052713
58.285 8.043036
58.290 7.717565
58.295 7.131458
58.300 7.064153
58.305 7.060482
58.310 7.093705
58.315 7.272653
58.320 7.239216
58.325 7.69228
58.330 7.8406
58.335 8.011796
58.340 8.094576
58.345 7.726006
58.350 7.255642
58.355 7.396909
58.360 7.118688
58.365 7.040109
58.370 6.898679
58.375 7.038245
58.380 7.107382
58.385 7.162949
58.390 7.124314
58.395 6.839966
58.400 7.107546
58.405 6.846515
58.410 6.741957
58.415 6.528698
58.420 6.464433
58.425 6.781456
58.430 7.160897
58.435 7.151577
58.440 7.279338
58.445 7.155785
58.450 7.270987
58.455 7.137301
58.460 7.097051
58.465 6.993316
58.470 7.194679
58.475 7.249174
58.480 7.728863
58.485 8.168723
58.490 8.465417
58.495 8.583559
58.500 8.390195
58.505 8.608782
58.510 8.644863
58.515 8.269433
58.520 7.887325
58.525 7.57111
58.530 7.270904
58.535 7.270566
58.540 7.228223
58.545 7.260939
58.550 7.356205
58.555 7.626181
58.560 7.75441
58.565 7.581285
58.570 7.306246
58.575 7.002047
58.580 7.108227
58.585 7.120051
58.590 6.869213
58.595 6.867022
58.600 6.931974
58.605 6.845529
58.610 6.882135
58.615 6.823081
58.620 6.969824
58.625 7.496633
58.630 7.628958
58.635 8.089211
58.640 8.722079
58.645 8.53597
58.650 8.395716
58.655 8.297583
58.660 7.897701
58.665 7.774184
58.670 7.585112
58.675 7.729562
58.680 8.187286
58.685 8.427594
58.690 8.457559
58.695 8.805398
58.700 8.932259
58.705 8.948277
58.710 8.870215
58.715 8.920938
58.720 9.292576
58.725 9.58935
58.730 9.277545
58.735 9.250042
58.740 9.370174
58.745 8.890999
58.750 8.474984
58.755 7.842964
58.760 7.35386
58.765 7.619922
58.770 7.426868
58.775 7.386162
58.780 7.952484
58.785 8.251879
58.790 8.464794
58.795 8.580202
58.800 8.735464
58.805 8.879684
58.810 8.624686
58.815 8.114253
58.820 7.696573
58.825 7.837327
58.830 7.97722
58.835 7.428303
58.840 7.054884
58.845 7.09985
58.850 7.496781
58.855 7.818808
58.860 7.843528
58.865 7.488468
58.870 7.816626
58.875 7.803682
58.880 8.143911
58.885 7.803255
58.890 7.763804
58.895 7.660939
58.900 8.043843
58.905 8.141459
58.910 8.432667
58.915 7.978722
58.920 7.724129
58.925 7.376143
58.930 7.327909
58.935 7.172367
58.940 7.272226
58.945 7.400099
58.950 7.440929
58.955 7.673857
58.960 7.973875
58.965 8.096183
58.970 7.773327
58.975 7.207574
58.980 6.832722
58.985 6.751612
58.990 6.601122
58.995 6.342409
59.000 6.388778
59.005 6.438524
59.010 7.142223
59.015 7.756782
59.020 7.859021
59.025 8.088018
59.030 7.985756
59.035 7.937397
59.040 7.973476
59.045 7.399192
59.050 6.696776
59.055 6.752214
59.060 6.998743
59.065 7.354616
59.070 7.221839
59.075 7.335267
59.080 7.36216
59.085 7.449459
59.090 7.550197
59.095 7.072792
59.100 6.601113
59.105 6.659721
59.110 6.457613
59.115 6.451225
59.120 6.381618
59.125 6.570408
59.130 6.805418
59.135 6.937189
59.140 7.062357
59.145 7.115825
59.150 6.888574
59.155 6.678092
59.160 6.053439
59.165 5.927019
59.170 6.133961
59.175 6.30603
59.180 6.532452
59.185 6.942478
59.190 7.283913
59.195 7.571213
59.200 7.64692
59.205 7.34023
59.210 7.34822
59.215 7.392159
59.220 6.961356
59.225 6.627709
59.230 6.277318
59.235 6.264466
59.240 6.30949
59.245 6.127201
59.250 5.972523
59.255 6.275019
59.260 6.406476
59.265 6.598563
59.270 6.694604
59.275 6.624572
59.280 6.801139
59.285 6.792285
59.290 6.837219
59.295 6.862296
59.300 6.740199
59.305 6.946705
59.310 6.988176
59.315 6.689604
59.320 6.649552
59.325 6.692665
59.330 6.880529
59.335 6.605116
59.340 6.426733
59.345 6.445519
59.350 6.491985
59.355 6.656605
59.360 6.910447
59.365 7.361521
59.370 7.743298
59.375 7.818928
59.380 7.822536
59.385 7.646688
59.390 7.794312
59.395 7.632968
59.400 7.377624
59.405 7.373381
59.410 7.436038
59.415 7.653768
59.420 7.693139
59.425 7.676025
59.430 7.521731
59.435 7.393589
59.440 7.281595
59.445 7.225809
59.450 7.435281
59.455 7.273877
59.460 7.169299
59.465 7.31304
59.470 7.464021
59.475 7.570357
59.480 7.195113
59.485 6.839791
59.490 7.051154
59.495 6.811646
59.500 6.807687
59.505 7.061001
59.510 6.91457
59.515 7.526262
59.520 7.671335
59.525 7.668914
59.530 7.547822
59.535 7.113046
59.540 6.639107
59.545 6.32439
59.550 5.938917
59.555 5.9337
59.560 6.059988
59.565 6.102448
59.570 6.412395
59.575 6.505988
59.580 6.650006
59.585 6.462492
59.590 6.57365
59.595 6.774951
59.600 6.796842
59.605 6.632295
59.610 6.697501
59.615 7.083086
59.620 7.564256
59.625 7.512795
59.630 7.697404
59.635 7.681675
59.640 7.667889
59.645 7.399546
59.650 7.210875
59.655 6.879287
59.660 6.810712
59.665 6.601972
59.670 7.092304
59.675 7.223732
59.680 7.377996
59.685 7.154529
59.690 7.052026
59.695 7.027002
59.700 6.667807
59.705 6.420323
59.710 6.759346
59.715 6.815482
59.720 6.869358
59.725 7.078018
59.730 7.031275
59.735 7.535667
59.740 7.971805
59.745 7.941612
59.750 8.14784
59.755 8.246228
59.760 8.221115
59.765 8.465903
59.770 8.200562
59.775 7.76138
59.780 7.500577
59.785 7.2215
59.790 6.997279
59.795 7.077357
59.800 7.01995
59.805 7.345497
59.810 7.186351
59.815 7.060555
59.820 6.920271
59.825 6.991194
59.830 6.901299
59.835 6.619923
59.840 6.335532
59.845 6.611305
59.850 6.900504
59.855 7.371029
59.860 7.078496
59.865 6.857471
59.870 6.795275
59.875 6.511771
59.880 6.858926
59.885 6.42626
59.890 6.322799
59.895 6.991751
59.900 7.365084
59.905 7.422946
59.910 7.374041
59.915 6.981352
59.920 7.230839
59.925 7.229947
59.930 7.215315
59.935 7.17971
59.940 7.339762
59.945 7.537082
59.950 7.384289
59.955 7.664583
59.960 7.506931
59.965 7.046565
59.970 6.926989
59.975 7.190483
59.980 7.308367
59.985 7.512523
59.990 7.454429
59.995 7.451634
60.000 7.47415
60.005 7.924506
60.010 7.815291
60.015 7.611427
60.020 7.414825
60.025 6.985033
60.030 7.044649
60.035 6.949628
60.040 6.72497
60.045 6.851444
60.050 7.241192
60.055 7.397237
60.060 7.706697
60.065 7.687788
60.070 7.54972
60.075 7.117979
60.080 6.844742
60.085 6.792313
60.090 6.676578
60.095 6.692024
60.100 7.194336
60.105 7.209281
60.110 7.245752
60.115 7.161527
60.120 6.598819
60.125 6.45832
60.130 6.230804
60.135 6.117026
60.140 6.113965
60.145 6.122779
60.150 6.31019
60.155 6.712263
60.160 6.872745
60.165 6.658552
60.170 6.545961
60.175 6.601197
60.180 6.648625
60.185 6.546217
60.190 6.461533
60.195 6.40834
60.200 6.598082
60.205 6.416166
60.210 6.585869
60.215 6.741419
60.220 6.882316
60.225 6.920075
60.230 6.933074
60.235 6.785943
60.240 6.925488
60.245 6.928575
60.250 6.95934
60.255 6.943615
60.260 6.917126
60.265 6.941312
60.270 6.789373
60.275 6.677348
60.280 6.318481
60.285 6.174477
60.290 6.163429
60.295 6.441034
60.300 6.426048
60.305 6.28232
60.310 6.229117
60.315 6.464524
60.320 6.525576
60.325 6.528102
60.330 6.293581
60.335 6.674924
60.340 6.993635
60.345 7.048061
60.350 6.682641
60.355 6.643835
60.360 6.672127
60.365 6.540586
60.370 6.390039
60.375 6.355388
60.380 6.605497
60.385 6.881973
60.390 7.243621
60.395 7.562747
60.400 7.60002
60.405 7.580832
60.410 7.395994
60.415 7.299403
60.420 7.358985
60.425 6.965901
60.430 6.304023
60.435 5.941862
60.440 5.929771
60.445 6.232139
60.450 6.142652
60.455 6.099231
60.460 6.268827
60.465 6.663574
60.470 7.346404
60.475 7.402977
60.480 7.668674
60.485 7.593365
60.490 7.531836
60.495 7.695734
60.500 7.563792
60.505 7.341987
60.510 7.411233
60.515 7.408229
60.520 7.554071
60.525 7.484895
60.530 7.18943
60.535 7.075724
60.540 6.966149
60.545 6.928017
60.550 6.681376
60.555 6.857195
60.560 6.715553
60.565 6.659975
60.570 7.027665
60.575 6.902879
60.580 6.674697
60.585 6.506954
60.590 6.458815
60.595 6.901112
60.600 7.204562
60.605 7.095014
60.610 7.376017
60.615 7.465745
60.620 7.817489
60.625 7.79416
60.630 7.395419
60.635 7.057333
60.640 6.844319
60.645 6.715939
60.650 6.669395
60.655 6.580847
60.660 6.711831
60.665 7.052466
60.670 7.378356
60.675 7.619261
60.680 7.914648
60.685 8.086331
60.690 7.923376
60.695 8.261453
60.700 8.123913
60.705 7.666486
60.710 7.691475
60.715 7.352043
60.720 7.435784
60.725 7.188478
60.730 6.756266
60.735 6.707997
60.740 6.894126
60.745 6.695336
60.750 6.6544
60.755 6.563266
60.760 6.767378
60.765 6.980253
60.770 6.882534
60.775 6.846981
60.780 7.081998
60.785 7.379107
60.790 7.705689
60.795 7.604559
60.800 7.423666
60.805 7.839077
60.810 8.135765
60.815 7.989804
60.820 7.829566
60.825 7.535024
60.830 8.067253
60.835 8.401822
60.840 8.309942
60.845 7.983149
60.850 7.938503
60.855 8.06879
60.860 7.975809
60.865 7.541768
60.870 7.098376
60.875 6.824868
60.880 7.10094
60.885 6.769129
60.890 6.529593
60.895 6.556501
60.900 6.481978
60.905 6.30561
60.910 6.349367
60.915 5.980008
60.920 6.208088
60.925 6.39302
60.930 6.411467
60.935 6.399257
60.940 6.501084
60.945 6.516556
60.950 6.568599
60.955 6.809031
60.960 6.655378
60.965 6.700477
60.970 6.724688
60.975 6.90317
60.980 6.899343
60.985 6.923165
60.990 6.571963
60.995 6.644713
61.000 6.729549
61.005 6.683921
61.010 6.607855
61.015 6.524873
61.020 6.805636
61.025 6.764438
61.030 6.665912
61.035 6.545488
61.040 6.752089
61.045 6.913006
61.050 6.943533
61.055 6.627831
61.060 6.94514
61.065 7.305649
61.070 7.53257
61.075 7.528394
61.080 7.311312
61.085 7.469672
61.090 7.332179
61.095 7.047192
61.100 7.091132
61.105 7.218127
61.110 7.26922
61.115 7.532928
61.120 7.445911
61.125 7.654101
61.130 7.829657
61.135 7.430262
61.140 7.301797
61.145 7.437819
61.150 7.413311
61.155 7.575118
61.160 7.813776
61.165 7.690236
61.170 7.642647
61.175 7.411225
61.180 7.370936
61.185 7.216963
61.190 6.915194
61.195 6.486057
61.200 6.359403
61.205 6.227047
61.210 6.265136
61.215 6.733967
61.220 7.055587
61.225 7.634748
61.230 8.079201
61.235 8.485065
61.240 8.850844
61.245 9.006828
61.250 8.655932
61.255 8.493519
61.260 8.099573
61.265 7.52611
61.270 7.373458
61.275 7.241503
61.280 6.900758
61.285 6.734158
61.290 6.83025
61.295 6.759873
61.300 6.75805
61.305 6.499634
61.310 6.231524
61.315 6.215876
61.320 6.310633
61.325 5.982506
61.330 6.048715
61.335 6.416845
61.340 6.640957
61.345 7.013435
61.350 7.000646
61.355 6.757718
61.360 6.825129
61.365 6.785254
61.370 6.481743
61.375 6.314003
61.380 6.186296
61.385 6.348683
61.390 6.982335
61.395 7.11024
61.400 7.288514
61.405 7.381587
61.410 7.590937
61.415 7.988149
61.420 8.094464
61.425 7.785502
61.430 8.02843
61.435 8.001493
61.440 8.188618
61.445 8.119359
61.450 8.211746
61.455 8.104125
61.460 8.021195
61.465 7.789612
61.470 7.617408
61.475 7.634693
61.480 7.630844
61.485 7.124746
61.490 6.99982
61.495 7.023075
61.500 6.819702
61.505 7.005746
61.510 6.915701
61.515 6.859482
61.520 7.336687
61.525 7.438621
61.530 7.678786
61.535 7.884351
61.540 7.989416
61.545 7.879738
61.550 7.880032
61.555 7.779492
61.560 7.82247
61.565 7.896276
61.570 7.998643
61.575 8.038962
61.580 8.173567
61.585 7.989062
61.590 8.169842
61.595 8.227032
61.600 8.033891
61.605 7.729037
61.610 7.478444
61.615 7.228067
61.620 7.416094
61.625 7.032213
61.630 6.683623
61.635 6.709376
61.640 6.864391
61.645 7.302282
61.650 7.910117
61.655 7.88028
61.660 7.911126
61.665 7.982757
61.670 8.138814
61.675 8.228485
61.680 7.496986
61.685 7.070394
61.690 7.32663
61.695 7.351003
61.700 7.469146
61.705 7.284654
61.710 7.221328
61.715 7.462393
61.720 7.59006
61.725 7.386652
61.730 7.556126
61.735 7.751763
61.740 7.799483
61.745 8.128599
61.750 7.975276
61.755 7.565161
61.760 7.681105
61.765 7.382495
61.770 7.104914
61.775 6.825083
61.780 6.698101
61.785 6.891191
61.790 7.035841
61.795 6.68604
61.800 6.709423
61.805 6.700938
61.810 6.87343
61.815 6.766206
61.820 7.293743
61.825 7.553047
61.830 7.697757
61.835 7.755932
61.840 7.767819
61.845 7.456627
61.850 7.532563
61.855 7.337379
61.860 7.04764
61.865 7.008976
61.870 7.217471
61.875 7.651044
61.880 8.02183
61.885 7.977993
61.890 7.688949
61.895 7.508161
61.900 7.693567
61.905 7.284464
61.910 6.986941
61.915 7.160674
61.920 7.056101
61.925 7.403135
61.930 7.52685
61.935 7.270104
61.940 7.44469
61.945 7.228507
61.950 6.83106
61.955 6.921786
61.960 6.763814
61.965 6.911167
61.970 7.484779
61.975 7.653292
61.980 7.794652
61.985 7.916534
61.990 8.037599
61.995 8.01537
62.000 8.017709
62.005 7.862992
62.010 7.957848
62.015 7.856242
62.020 7.687761
62.025 7.788956
62.030 7.985317
62.035 7.967732
62.040 7.830143
62.045 7.715475
62.050 8.022449
62.055 8.059252
62.060 8.035585
62.065 7.922185
62.070 8.168365
62.075 7.977008
62.080 7.942459
62.085 7.991565
62.090 8.054276
62.095 7.592476
62.100 7.622762
62.105 7.097534
62.110 7.35164
62.115 7.644923
62.120 7.496309
62.125 7.846306
62.130 7.921197
62.135 7.689376
62.140 8.189448
62.145 8.289458
62.150 8.313426
62.155 8.081702
62.160 7.837929
62.165 7.88476
62.170 8.262896
62.175 8.002266
62.180 7.952357
62.185 8.371878
62.190 9.01623
62.195 9.260702
62.200 9.608242
62.205 9.55762
62.210 9.393411
62.215 9.386896
62.220 8.549439
62.225 8.235067
62.230 7.773341
62.235 7.627099
62.240 7.588799
62.245 7.483932
62.250 7.315619
62.255 7.475192
62.260 7.431012
62.265 7.500498
62.270 7.089981
62.275 7.017761
62.280 6.968049
62.285 6.921545
62.290 7.064315
62.295 6.784271
62.300 6.784301
62.305 6.861217
62.310 6.82356
62.315 6.57867
62.320 6.219188
62.325 6.136156
62.330 6.572281
62.335 6.788891
62.340 6.893916
62.345 7.262443
62.350 7.616765
62.355 8.083986
62.360 7.824115
62.365 7.445795
62.370 7.332943
62.375 7.133716
62.380 6.994074
62.385 6.811281
62.390 6.51547
62.395 6.814486
62.400 6.780979
62.405 6.951808
62.410 7.225832
62.415 7.163397
62.420 7.417374
62.425 7.576946
62.430 7.908875
62.435 8.185354
62.440 7.885062
62.445 8.074159
62.450 8.470018
62.455 8.504645
62.460 8.450318
62.465 8.326796
62.470 8.505378
62.475 9.102549
62.480 9.049741
62.485 8.874252
62.490 9.001924
62.495 8.842875
62.500 8.555636
62.505 8.331739
62.510 7.960375
62.515 7.601451
62.520 7.607661
62.525 7.526919
62.530 7.786192
62.535 7.643061
62.540 7.671854
62.545 7.994263
62.550 8.480974
62.555 8.804925
62.560 8.898437
62.565 8.666077
62.570 8.671494
62.575 8.753201
62.580 8.425879
62.585 8.110729
62.590 7.795336
62.595 8.001431
62.600 8.407587
62.605 8.645704
62.610 8.204243
62.615 8.258641
62.620 8.638629
62.625 8.002034
62.630 7.234797
62.635 6.856866
62.640 6.726917
62.645 7.027422
62.650 7.009004
62.655 6.661161
62.660 7.139883
62.665 7.728677
62.670 7.977417
62.675 8.259307
62.680 8.999214
62.685 9.202734
62.690 9.323388
62.695 9.688605
62.700 9.437471
62.705 9.467515
62.710 9.372967
62.715 8.775733
62.720 8.670087
62.725 8.583333
62.730 8.566542
62.735 8.959871
62.740 9.259472
62.745 9.236311
62.750 9.223064
62.755 9.269046
62.760 9.088786
62.765 9.145659
62.770 8.862122
62.775 8.720642
62.780 8.755961
62.785 8.757698
62.790 8.547917
62.795 8.933027
62.800 8.817207
62.805 9.186224
62.810 9.639999
62.815 9.663968
62.820 9.667043
62.825 10.223229
62.830 10.271835
62.835 10.489364
62.840 9.822881
62.845 8.851449
62.850 8.816715
62.855 8.833281
62.860 8.284371
62.865 7.793334
62.870 7.626766
62.875 7.601179
62.880 7.633059
62.885 7.461352
62.890 7.462173
62.895 7.557755
62.900 7.57713
62.905 7.561167
62.910 7.886209
62.915 8.045238
62.920 8.274155
62.925 8.202234
62.930 7.977153
62.935 7.902612
62.940 7.607947
62.945 7.342868
62.950 7.432458
62.955 7.55818
62.960 7.764087
62.965 8.048553
62.970 8.809504
62.975 9.361958
62.980 9.654072
62.985 9.867857
62.990 9.898117
62.995 9.939154
63.000 9.81772
63.005 9.084304
63.010 8.655199
63.015 8.18646
63.020 7.72961
63.025 7.2535
63.030 7.012942
63.035 6.993669
63.040 6.836006
63.045 6.926628
63.050 7.06161
63.055 7.09736
63.060 7.372797
63.065 7.279698
63.070 6.854733
63.075 7.064456
63.080 7.267205
63.085 7.306691
63.090 7.198567
63.095 6.989285
63.100 7.226376
63.105 7.750937
63.110 7.455801
63.115 7.099601
63.120 7.153904
63.125 7.34713
63.130 7.562891
63.135 8.038817
63.140 7.809026
63.145 7.890186
63.150 8.035957
63.155 8.108168
63.160 8.054888
63.165 7.689559
63.170 7.220971
63.175 7.587481
63.180 7.769391
63.185 7.818182
63.190 7.697959
63.195 7.767417
63.200 7.900538
63.205 7.76956
63.210 7.300199
63.215 6.60444
63.220 6.359051
63.225 6.422292
63.230 6.054753
63.235 5.981598
63.240 6.14426
63.245 6.257482
63.250 6.809665
63.255 6.964969
63.260 7.185554
63.265 7.524121
63.270 7.614839
63.275 7.5049
63.280 7.622995
63.285 7.586653
63.290 7.394034
63.295 7.295054
63.300 7.338994
63.305 7.405572
63.310 7.678453
63.315 7.633348
63.320 7.923668
63.325 8.114301
63.330 8.102331
63.335 8.154716
63.340 7.997407
63.345 7.99969
63.350 8.347698
63.355 8.16324
63.360 8.105416
63.365 8.380325
63.370 8.587009
63.375 8.776771
63.380 8.394072
63.385 8.086808
63.390 8.112529
63.395 8.209735
63.400 7.682225
63.405 7.633278
63.410 7.450164
63.415 7.743033
63.420 7.788549
63.425 7.519836
63.430 7.320042
63.435 7.224463
63.440 6.801301
63.445 7.083624
63.450 7.481723
63.455 7.814044
63.460 7.732611
63.465 7.999669
63.470 8.195049
63.475 8.252163
63.480 8.018832
63.485 7.934399
63.490 8.329174
63.495 8.779037
63.500 8.812779
63.505 8.870416
63.510 9.104849
63.515 8.992994
63.520 8.564104
63.525 8.410343
63.530 8.340906
63.535 8.247213
63.540 8.222773
63.545 7.913685
63.550 7.834581
63.555 7.471733
63.560 7.145061
63.565 6.780257
63.570 6.617297
63.575 6.774098
63.580 6.915324
63.585 7.140265
63.590 7.479665
63.595 7.542539
63.600 7.884388
63.605 8.27333
63.610 8.128473
63.615 8.369331
63.620 8.265536
63.625 8.19043
63.630 8.347458
63.635 8.396368
63.640 8.283594
63.645 8.283572
63.650 7.996508
63.655 8.259683
63.660 8.255266
63.665 8.238027
63.670 8.015533
63.675 7.600886
63.680 7.932877
63.685 7.977441
63.690 7.747305
63.695 7.565503
63.700 7.37884
63.705 6.918793
63.710 7.031546
63.715 6.711062
63.720 6.519442
63.725 6.743565
63.730 6.811272
63.735 6.666171
63.740 6.964922
63.745 7.10241
63.750 6.97015
63.755 6.733634
63.760 6.46192
63.765 6.648339
63.770 7.192932
63.775 7.271685
63.780 7.553996
63.785 8.0814
63.790 8.260744
63.795 8.19418
63.800 7.827783
63.805 7.580412
63.810 7.653184
63.815 7.023607
63.820 6.804388
63.825 7.190759
63.830 7.331078
63.835 7.370734
63.840 7.556162
63.845 7.459079
63.850 7.515214
63.855 7.155795
63.860 7.041557
63.865 7.424394
63.870 7.40871
63.875 7.269943
63.880 7.557637
63.885 7.763142
63.890 8.126693
63.895 8.093882
63.900 7.926109
63.905 7.924173
63.910 7.858834
63.915 7.701549
63.920 7.793703
63.925 7.615276
63.930 7.207178
63.935 7.52167
63.940 7.713651
63.945 8.011026
63.950 8.078261
63.955 8.274019
63.960 8.658614
63.965 8.737132
63.970 8.277793
63.975 7.588992
63.980 7.142557
63.985 7.129918
63.990 6.697297
63.995 6.967874
64.000 7.223647
64.005 7.177032
64.010 7.50681
64.015 7.936295
64.020 7.982527
64.025 7.738494
64.030 7.244335
64.035 7.403896
64.040 7.696007
64.045 8.042109
64.050 8.361218
64.055 8.397381
64.060 8.75938
64.065 8.655848
64.070 8.602439
64.075 8.878307
64.080 8.564186
64.085 7.835048
64.090 7.859864
64.095 7.558117
64.100 7.515427
64.105 7.457028
64.110 6.935251
64.115 7.335657
64.120 7.627186
64.125 7.617089
64.130 7.617124
64.135 7.510134
64.140 7.080992
64.145 7.205852
64.150 6.871999
64.155 7.021616
64.160 6.852778
64.165 7.23312
64.170 7.561543
64.175 7.586582
64.180 7.509114
64.185 7.391567
64.190 7.515707
64.195 7.57486
64.200 7.615295
64.205 7.682719
64.210 7.69751
64.215 7.595286
64.220 7.494383
64.225 7.430688
64.230 7.685987
64.235 7.767845
64.240 7.745002
64.245 8.12287
64.250 8.396643
64.255 8.461902
64.260 8.566776
64.265 8.603197
64.270 8.758459
64.275 9.209214
64.280 9.132877
64.285 9.199373
64.290 9.236686
64.295 9.364578
64.300 9.172503
64.305 9.144884
64.310 8.95927
64.315 8.941535
64.320 8.928374
64.325 9.053068
64.330 8.766882
64.335 9.227002
64.340 9.296194
64.345 9.663478
64.350 10.239936
64.355 10.565218
64.360 10.870575
64.365 11.457148
64.370 11.103566
64.375 10.974315
64.380 11.431239
64.385 11.286002
64.390 11.235076
64.395 11.435732
64.400 11.134667
64.405 11.614716
64.410 11.696213
64.415 11.136573
64.420 10.796155
64.425 10.939797
64.430 10.584443
64.435 10.708556
64.440 10.262104
64.445 10.564314
64.450 10.625019
64.455 11.147312
64.460 11.201089
64.465 11.648843
64.470 11.796416
64.475 11.740864
64.480 11.080085
64.485 10.999174
64.490 10.901473
64.495 10.950424
64.500 10.708758
64.505 10.240619
64.510 10.138088
64.515 9.99515
64.520 9.696168
64.525 9.248709
64.530 8.680142
64.535 8.548535
64.540 8.624796
64.545 8.663679
64.550 9.078196
64.555 9.516158
64.560 9.690784
64.565 10.244544
64.570 10.330187
64.575 10.290545
64.580 10.352681
64.585 10.316276
64.590 10.476245
64.595 10.747282
64.600 10.746968
64.605 10.549767
64.610 10.890495
64.615 10.9834
64.620 11.028843
64.625 10.247098
64.630 10.332522
64.635 10.302892
64.640 10.527515
64.645 10.231691
64.650 10.043002
64.655 9.495225
64.660 9.808763
64.665 9.743516
64.670 9.625681
64.675 9.891086
64.680 10.321908
64.685 10.878169
64.690 11.624327
64.695 12.003451
64.700 11.925686
64.705 12.332193
64.710 12.37996
64.715 12.450951
64.720 12.282503
64.725 11.862426
64.730 11.911879
64.735 12.453353
64.740 12.870771
64.745 12.764991
64.750 12.695817
64.755 12.631011
64.760 12.642681
64.765 12.338526
64.770 11.815188
64.775 11.571681
64.780 11.876225
64.785 12.090077
64.790 12.434486
64.795 12.920428
64.800 13.032097
64.805 13.425249
64.810 13.511957
64.815 13.355
64.820 13.497029
64.825 13.717664
64.830 13.766029
64.835 13.747551
64.840 13.308741
64.845 12.671439
64.850 12.799284
64.855 12.812813
64.860 12.775468
64.865 12.428739
64.870 12.981824
64.875 13.731777
64.880 14.464604
64.885 14.746339
64.890 14.842658
64.895 15.242194
64.900 16.096903
64.905 16.01701
64.910 15.966959
64.915 15.646399
64.920 15.79062
64.925 15.911783
64.930 15.948728
64.935 15.524706
64.940 15.346613
64.945 14.992318
64.950 15.218613
64.955 15.292924
64.960 15.585895
64.965 15.388096
64.970 15.759115
64.975 16.024075
64.980 16.368441
64.985 17.091255
64.990 16.765446
64.995 16.285753
65.000 16.661348
65.005 16.339754
65.010 16.996788
65.015 17.39646
65.020 17.336365
65.025 17.709789
65.030 18.107489
65.035 18.00584
65.040 18.497654
65.045 18.25304
65.050 18.211622
65.055 18.29739
65.060 18.512676
65.065 18.446043
65.070 18.842588
65.075 18.893091
65.080 19.204008
65.085 18.935583
65.090 18.412636
65.095 18.036812
65.100 17.703211
65.105 17.112696
65.110 16.699543
65.115 16.453157
65.120 16.507721
65.125 16.508831
65.130 17.059343
65.135 17.290308
65.140 17.579786
65.145 17.40694
65.150 17.392109
65.155 16.883654
65.160 16.181927
65.165 15.442818
65.170 14.913951
65.175 14.723273
65.180 14.501736
65.185 14.183867
65.190 14.507344
65.195 14.978921
65.200 15.300368
65.205 15.086762
65.210 14.711249
65.215 14.423584
65.220 14.638067
65.225 14.518182
65.230 13.914091
65.235 13.204191
65.240 13.050575
65.245 13.019439
65.250 13.347861
65.255 12.741653
65.260 13.010287
65.265 13.349635
65.270 13.185637
65.275 13.177799
65.280 12.984058
65.285 12.416029
65.290 12.229683
65.295 11.442346
65.300 11.251885
65.305 11.315472
65.310 11.16751
65.315 10.825717
65.320 10.682873
65.325 11.161994
65.330 11.673958
65.335 12.022845
65.340 12.230185
65.345 12.479609
65.350 12.71842
65.355 13.256893
65.360 13.013598
65.365 12.33544
65.370 11.500268
65.375 11.081693
65.380 10.958633
65.385 10.772664
65.390 10.374804
65.395 10.291071
65.400 10.344449
65.405 10.312055
65.410 10.157648
65.415 10.278137
65.420 10.264592
65.425 10.262496
65.430 10.529276
65.435 10.839204
65.440 11.178495
65.445 11.225595
65.450 10.811487
65.455 10.767416
65.460 10.272407
65.465 9.931103
65.470 9.635992
65.475 9.154296
65.480 9.618073
65.485 10.080561
65.490 10.227242
65.495 10.427502
65.500 10.433768
65.505 10.590532
65.510 11.312729
65.515 11.059862
65.520 10.710743
65.525 11.109592
65.530 11.447627
65.535 11.666639
65.540 11.858771
65.545 11.35513
65.550 11.218307
65.555 10.840411
65.560 10.465758
65.565 10.072022
65.570 9.680754
65.575 9.415682
65.580 9.096498
65.585 8.91624
65.590 9.135944
65.595 8.91338
65.600 8.615606
65.605 9.104357
65.610 9.291096
65.615 9.510512
65.620 9.900721
65.625 9.932532
65.630 10.138819
65.635 10.25994
65.640 9.943792
65.645 9.61623
65.650 9.654382
65.655 9.34535
65.660 9.200418
65.665 9.151105
65.670 9.454007
65.675 9.478663
65.680 9.40686
65.685 9.331558
65.690 9.667044
65.695 9.754125
65.700 9.878831
65.705 9.892788
65.710 9.84467
65.715 10.019139
65.720 9.99329
65.725 9.688168
65.730 9.752784
65.735 9.654611
65.740 9.780082
65.745 9.867654
65.750 9.805512
65.755 10.024801
65.760 10.489139
65.765 10.748907
65.770 10.791449
65.775 10.586726
65.780 10.298628
65.785 10.071127
65.790 9.919598
65.795 9.46956
65.800 8.991447
65.805 8.719162
65.810 8.56372
65.815 8.635761
65.820 8.057707
65.825 7.939549
65.830 8.01862
65.835 8.046905
65.840 8.618927
65.845 8.871223
65.850 9.25673
65.855 10.101118
65.860 10.016211
65.865 9.553211
65.870 9.475099
65.875 9.257069
65.880 9.140877
65.885 8.892121
65.890 8.859588
65.895 9.06047
65.900 8.96804
65.905 9.127977
65.910 8.822518
65.915 8.681459
65.920 8.891005
65.925 8.598895
65.930 8.164185
65.935 8.238892
65.940 8.000632
65.945 8.010183
65.950 8.024469
65.955 7.542259
65.960 7.64329
65.965 7.876692
65.970 8.144808
65.975 8.336047
65.980 8.053343
65.985 8.405046
65.990 8.931817
65.995 9.151937
66.000 9.361097
66.005 9.045073
66.010 8.716324
66.015 8.669422
66.020 8.670026
66.025 8.624119
66.030 8.749261
66.035 8.613982
66.040 8.397753
66.045 8.464127
66.050 8.644439
66.055 8.51899
66.060 7.9304
66.065 7.823722
66.070 7.536275
66.075 8.128451
66.080 8.427824
66.085 8.713149
66.090 8.671597
66.095 8.864655
66.100 8.78037
66.105 9.005959
66.110 8.68902
66.115 8.410666
66.120 7.716712
66.125 7.731491
66.130 7.819007
66.135 7.516429
66.140 7.493
66.145 7.256977
66.150 7.13395
66.155 7.696014
66.160 7.573518
66.165 7.503441
66.170 7.805469
66.175 7.883922
66.180 8.474195
66.185 8.814522
66.190 8.414124
66.195 8.451666
66.200 8.389098
66.205 8.153765
66.210 8.674937
66.215 8.863246
66.220 9.086751
66.225 9.310406
66.230 9.061644
66.235 9.161469
66.240 9.292964
66.245 8.724094
66.250 8.273219
66.255 7.842883
66.260 7.668885
66.265 7.779984
66.270 7.608571
66.275 7.608807
66.280 7.623522
66.285 7.650535
66.290 7.96862
66.295 8.456846
66.300 8.748374
66.305 9.066465
66.310 9.123878
66.315 9.362848
66.320 9.161853
66.325 8.873151
66.330 8.823694
66.335 8.691711
66.340 8.289177
66.345 7.862958
66.350 7.687833
66.355 7.429488
66.360 7.230988
66.365 7.087454
66.370 6.985652
66.375 6.900707
66.380 6.914402
66.385 7.020072
66.390 7.570509
66.395 7.794145
66.400 7.946909
66.405 8.296873
66.410 8.778588
66.415 9.144924
66.420 9.131325
66.425 9.0825
66.430 9.211046
66.435 8.840995
66.440 8.519799
66.445 8.315676
66.450 8.098067
66.455 8.211028
66.460 8.17939
66.465 7.898878
66.470 7.891215
66.475 7.758079
66.480 7.695555
66.485 7.475927
66.490 7.292675
66.495 6.926136
66.500 7.175164
66.505 7.727601
66.510 8.033038
66.515 8.471994
66.520 8.930509
66.525 8.785311
66.530 9.365234
66.535 8.835678
66.540 8.35339
66.545 8.154903
66.550 7.950775
66.555 7.821788
66.560 7.77766
66.565 7.956403
66.570 8.10194
66.575 8.151493
66.580 8.179571
66.585 8.235074
66.590 8.389315
66.595 8.58186
66.600 8.509525
66.605 8.921932
66.610 9.007302
66.615 9.008858
66.620 8.566245
66.625 8.360969
66.630 8.112074
66.635 7.912925
66.640 7.62571
66.645 7.503167
66.650 7.431882
66.655 7.466462
66.660 7.682095
66.665 7.874342
66.670 8.012195
66.675 8.176051
66.680 8.389235
66.685 8.693025
66.690 8.967271
66.695 8.386211
66.700 7.802125
66.705 7.337802
66.710 6.782318
66.715 6.645993
66.720 6.356738
66.725 6.350984
66.730 6.562151
66.735 6.761185
66.740 6.780144
66.745 7.068825
66.750 7.247301
66.755 7.72322
66.760 7.662489
66.765 7.650449
66.770 8.016652
66.775 8.394486
66.780 8.313307
66.785 8.0673
66.790 7.979379
66.795 8.085438
66.800 8.200645
66.805 8.169751
66.810 8.060199
66.815 8.086483
66.820 8.109872
66.825 8.13809
66.830 8.120913
66.835 7.87063
66.840 7.439804
66.845 7.551671
66.850 7.546182
66.855 7.494745
66.860 7.289105
66.865 7.218032
66.870 7.204226
66.875 7.503985
66.880 7.622503
66.885 7.854438
66.890 7.934938
66.895 7.798737
66.900 8.131436
66.905 8.365117
66.910 8.384709
66.915 8.376464
66.920 8.153599
66.925 8.004525
66.930 7.813876
66.935 7.603411
66.940 7.472872
66.945 7.329337
66.950 6.979189
66.955 6.97397
66.960 7.174258
66.965 7.454131
66.970 7.500155
66.975 7.409889
66.980 7.195428
66.985 7.117145
66.990 7.098599
66.995 7.092446
67.000 6.833131
67.005 6.748646
67.010 7.196736
67.015 7.536047
67.020 7.674892
67.025 7.603711
67.030 7.560452
67.035 7.572029
67.040 7.561587
67.045 7.220811
67.050 7.132893
67.055 7.099321
67.060 6.973519
67.065 7.023062
67.070 6.98956
67.075 7.268483
67.080 7.87707
67.085 7.588655
67.090 7.348419
67.095 7.418182
67.100 7.346561
67.105 7.658103
67.110 7.320909
67.115 7.034649
67.120 7.255355
67.125 7.888694
67.130 8.098947
67.135 8.389121
67.140 8.425716
67.145 8.355286
67.150 7.967758
67.155 7.869593
67.160 7.476469
67.165 7.492752
67.170 7.446708
67.175 7.036592
67.180 7.312422
67.185 7.933245
67.190 7.929497
67.195 7.935513
67.200 7.822801
67.205 7.61625
67.210 8.118331
67.215 8.339529
67.220 8.138036
67.225 8.166325
67.230 8.245343
67.235 8.117352
67.240 7.960058
67.245 7.667959
67.250 7.201606
67.255 7.125568
67.260 7.255444
67.265 7.660175
67.270 7.778818
67.275 8.055401
67.280 8.040364
67.285 8.205152
67.290 8.200963
67.295 7.821665
67.300 7.607008
67.305 7.755703
67.310 8.14329
67.315 8.390957
67.320 8.48589
67.325 8.929795
67.330 9.617584
67.335 9.39846
67.340 8.981943
67.345 8.619951
67.350 8.330506
67.355 8.236391
67.360 8.166896
67.365 8.133996
67.370 8.244308
67.375 8.784286
67.380 9.052131
67.385 9.391578
67.390 9.396282
67.395 9.164612
67.400 8.778758
67.405 8.624429
67.410 8.462024
67.415 8.0381
67.420 7.76462
67.425 7.58362
67.430 7.827559
67.435 8.178667
67.440 8.469695
67.445 8.419179
67.450 8.283875
67.455 8.507525
67.460 8.397571
67.465 8.093962
67.470 7.916737
67.475 7.920564
67.480 8.076791
67.485 8.196007
67.490 8.156183
67.495 8.410748
67.500 8.609867
67.505 8.769105
67.510 8.397464
67.515 8.752119
67.520 8.815862
67.525 8.900893
67.530 8.552019
67.535 8.107618
67.540 7.759673
67.545 7.769187
67.550 7.573783
67.555 7.686537
67.560 7.700838
67.565 7.781957
67.570 7.919833
67.575 8.258246
67.580 8.087083
67.585 7.99325
67.590 7.323789
67.595 7.570717
67.600 7.803555
67.605 7.564074
67.610 7.542062
67.615 7.82547
67.620 8.135457
67.625 8.932514
67.630 8.956369
67.635 9.088682
67.640 9.362353
67.645 9.233
67.650 9.192621
67.655 8.868311
67.660 8.59372
67.665 8.672356
67.670 8.915985
67.675 8.723229
67.680 8.706371
67.685 8.906346
67.690 8.811211
67.695 8.690564
67.700 8.371109
67.705 7.960758
67.710 8.120801
67.715 8.50841
67.720 8.369216
67.725 8.51531
67.730 8.387684
67.735 8.292273
67.740 8.381875
67.745 8.272695
67.750 7.878039
67.755 7.737969
67.760 7.926826
67.765 8.415079
67.770 8.680485
67.775 8.676652
67.780 8.677989
67.785 8.757163
67.790 8.734674
67.795 8.506558
67.800 8.080913
67.805 7.859135
67.810 7.875506
67.815 7.571021
67.820 7.582254
67.825 7.750195
67.830 8.019252
67.835 7.974357
67.840 8.04614
67.845 8.046015
67.850 8.757083
67.855 9.010979
67.860 9.078063
67.865 9.321984
67.870 9.564436
67.875 10.04423
67.880 10.097305
67.885 9.86718
67.890 10.229099
67.895 10.200891
67.900 10.116377
67.905 10.031923
67.910 9.608381
67.915 9.561255
67.920 9.482565
67.925 9.091748
67.930 9.039215
67.935 8.963441
67.940 9.012329
67.945 8.974936
67.950 9.088738
67.955 8.930664
67.960 8.966987
67.965 9.254004
67.970 9.361778
67.975 9.320249
67.980 9.239241
67.985 8.992422
67.990 8.859243
67.995 8.292482
68.000 7.854185
68.005 7.689862
68.010 7.699244
68.015 7.793601
68.020 8.021739
68.025 8.202195
68.030 8.203926
68.035 8.077025
68.040 8.410878
68.045 8.504488
68.050 8.515829
68.055 8.453701
68.060 8.60958
68.065 8.954294
68.070 9.000133
68.075 8.674657
68.080 8.756757
68.085 8.786119
68.090 8.490273
68.095 8.469166
68.100 8.767007
68.105 9.148845
68.110 9.389822
68.115 9.051556
68.120 8.976708
68.125 9.197814
68.130 9.13256
68.135 8.855001
68.140 8.278557
68.145 7.929029
68.150 7.991749
68.155 8.012477
68.160 7.97149
68.165 7.916746
68.170 7.84181
68.175 8.035223
68.180 8.044063
68.185 8.042403
68.190 8.112525
68.195 7.803944
68.200 7.817826
68.205 7.982097
68.210 7.876203
68.215 7.896901
68.220 7.971989
68.225 7.977066
68.230 8.010117
68.235 8.226427
68.240 8.117511
68.245 8.677366
68.250 8.905869
68.255 8.739169
68.260 8.956894
68.265 9.540079
68.270 9.338762
68.275 9.337466
68.280 9.139722
68.285 9.049933
68.290 8.848418
68.295 8.226593
68.300 7.649287
68.305 7.813425
68.310 7.581509
68.315 7.471137
68.320 7.014778
68.325 6.878994
68.330 7.137695
68.335 7.370486
68.340 7.462825
68.345 7.45541
68.350 7.724041
68.355 8.334687
68.360 8.890775
68.365 8.99994
68.370 8.966792
68.375 8.980149
68.380 9.021729
68.385 9.153728
68.390 9.055162
68.395 9.15829
68.400 9.115058
68.405 8.867743
68.410 8.929639
68.415 8.961204
68.420 8.829333
68.425 8.962026
68.430 8.976806
68.435 8.946123
68.440 8.905977
68.445 8.902895
68.450 8.674231
68.455 8.369411
68.460 8.294686
68.465 8.145842
68.470 8.491953
68.475 8.46754
68.480 8.241539
68.485 7.806584
68.490 7.927125
68.495 7.594751
68.500 7.4838
68.505 7.170788
68.510 7.190168
68.515 7.315201
68.520 7.595407
68.525 7.868996
68.530 7.987914
68.535 7.633274
68.540 7.443613
68.545 7.447586
68.550 7.219764
68.555 6.883891
68.560 6.735362
68.565 6.789164
68.570 7.268438
68.575 7.487579
68.580 7.712075
68.585 7.977272
68.590 8.40027
68.595 8.10373
68.600 8.271399
68.605 8.130934
68.610 8.709044
68.615 8.853313
68.620 9.124776
68.625 9.378787
68.630 9.668475
68.635 9.65394
68.640 9.553394
68.645 9.006935
68.650 8.711136
68.655 8.687025
68.660 8.820355
68.665 9.187906
68.670 9.607632
68.675 9.612998
68.680 9.728594
68.685 9.937102
68.690 9.889318
68.695 9.236565
68.700 9.0455
68.705 8.759306
68.710 9.49229
68.715 9.516703
68.720 9.779109
68.725 9.688619
68.730 10.077564
68.735 9.879848
68.740 9.625707
68.745 9.221484
68.750 9.343315
68.755 9.678732
68.760 9.799743
68.765 9.597112
68.770 9.763748
68.775 9.63346
68.780 9.401682
68.785 9.07056
68.790 8.830477
68.795 8.992907
68.800 9.054979
68.805 8.871731
68.810 8.941024
68.815 8.701787
68.820 8.458673
68.825 8.231997
68.830 8.414138
68.835 8.370938
68.840 8.543344
68.845 8.700645
68.850 8.870267
68.855 8.947131
68.860 8.697835
68.865 8.404845
68.870 8.551343
68.875 8.678986
68.880 8.498484
68.885 8.862085
68.890 9.069364
68.895 9.024398
68.900 9.375799
68.905 9.622251
68.910 10.325923
68.915 10.884398
68.920 11.083658
68.925 11.253033
68.930 11.165857
68.935 11.25528
68.940 11.011077
68.945 10.35658
68.950 9.76605
68.955 9.632556
68.960 9.992263
68.965 10.115446
68.970 9.86479
68.975 10.012131
68.980 10.143441
68.985 9.89509
68.990 9.59893
68.995 9.092552
69.000 9.171021
69.005 9.117249
69.010 8.761002
69.015 8.951386
69.020 9.032901
69.025 9.259677
69.030 9.623847
69.035 9.776608
69.040 9.807328
69.045 10.13209
69.050 9.924822
69.055 9.846673
69.060 9.619164
69.065 9.491934
69.070 9.386706
69.075 9.829428
69.080 9.35667
69.085 9.63136
69.090 10.027193
69.095 9.940053
69.100 10.18377
69.105 10.899694
69.110 10.523297
69.115 10.757001
69.120 10.618731
69.125 10.629936
69.130 10.56076
69.135 10.509876
69.140 10.059953
69.145 9.795438
69.150 9.994308
69.155 9.92064
69.160 9.729284
69.165 9.691787
69.170 9.425425
69.175 8.830903
69.180 8.778036
69.185 8.578576
69.190 8.715116
69.195 8.989479
69.200 8.618356
69.205 8.302422
69.210 8.221108
69.215 8.470888
69.220 8.796973
69.225 8.343394
69.230 8.098197
69.235 8.206152
69.240 8.663557
69.245 8.454404
69.250 7.757421
69.255 7.24816
69.260 7.142274
69.265 7.259651
69.270 7.540571
69.275 7.453273
69.280 7.737299
69.285 8.383415
69.290 8.758546
69.295 8.693012
69.300 8.544415
69.305 8.107883
69.310 8.358686
69.315 8.389209
69.320 7.841846
69.325 7.475791
69.330 7.759475
69.335 7.751683
69.340 7.94843
69.345 7.988224
69.350 8.144267
69.355 8.413602
69.360 8.886134
69.365 8.373997
69.370 7.891878
69.375 7.808162
69.380 7.502523
69.385 7.231896
69.390 7.097826
69.395 6.989141
69.400 7.615165
69.405 7.9267
69.410 7.711413
69.415 8.122863
69.420 8.257365
69.425 8.268796
69.430 8.146784
69.435 8.230647
69.440 8.405361
69.445 8.590996
69.450 8.206126
69.455 7.584439
69.460 7.323462
69.465 7.254088
69.470 7.12412
69.475 7.195771
69.480 7.137971
69.485 7.372017
69.490 7.653168
69.495 7.950516
69.500 8.197167
69.505 8.139026
69.510 8.095819
69.515 8.02557
69.520 7.770532
69.525 7.694744
69.530 7.523571
69.535 7.350792
69.540 7.328059
69.545 7.202193
69.550 7.090678
69.555 7.353167
69.560 7.421601
69.565 7.670082
69.570 7.724275
69.575 7.74711
69.580 7.489724
69.585 7.555163
69.590 7.599604
69.595 7.920689
69.600 7.706458
69.605 7.729152
69.610 7.816399
69.615 7.877837
69.620 8.200394
69.625 8.234988
69.630 8.152112
69.635 8.018564
69.640 7.896018
69.645 7.91067
69.650 8.156636
69.655 8.327436
69.660 8.548137
69.665 8.371956
69.670 8.918392
69.675 9.206376
69.680 9.436108
69.685 9.763368
69.690 9.456505
69.695 9.487123
69.700 9.869358
69.705 9.30546
69.710 8.926115
69.715 8.200134
69.720 7.886011
69.725 8.104591
69.730 7.938024
69.735 7.764042
69.740 8.3617
69.745 8.823044
69.750 8.835655
69.755 8.416042
69.760 8.209158
69.765 8.19553
69.770 8.003767
69.775 7.416518
69.780 7.439991
69.785 7.753825
69.790 7.967333
69.795 8.226394
69.800 8.763956
69.805 9.018242
69.810 9.396512
69.815 9.182528
69.820 9.516481
69.825 9.434109
69.830 9.350702
69.835 9.443159
69.840 9.616918
69.845 9.465749
69.850 9.565282
69.855 9.420535
69.860 9.469284
69.865 9.203811
69.870 8.828825
69.875 8.39622
69.880 8.114564
69.885 8.38959
69.890 8.021368
69.895 7.785552
69.900 7.463822
69.905 7.47636
69.910 7.48129
69.915 7.568315
69.920 7.555987
69.925 7.617022
69.930 7.472248
69.935 7.22626
69.940 7.464067
69.945 7.907562
69.950 8.015976
69.955 7.87606
69.960 7.925011
69.965 8.065506
69.970 8.050352
69.975 7.314027
69.980 7.344177
69.985 7.360229
69.990 7.279433
69.995 7.40592
70.000 7.378313
70.005 7.607354
70.010 8.030771
70.015 7.692895
70.020 7.355981
70.025 7.471087
70.030 7.454469
70.035 7.621992
70.040 7.27602
70.045 6.82398
70.050 6.633569
70.055 6.73647
70.060 6.825332
70.065 7.163661
70.070 7.586457
70.075 7.918881
70.080 7.795027
70.085 7.778412
70.090 7.545944
70.095 7.637612
70.100 7.095392
70.105 6.796017
70.110 6.969657
70.115 7.38328
70.120 7.536599
70.125 7.898388
70.130 8.180322
70.135 8.585541
70.140 8.584443
70.145 8.809055
70.150 8.807549
70.155 8.727353
70.160 8.761448
70.165 8.286362
70.170 8.343975
70.175 8.330878
70.180 8.315286
70.185 8.523691
70.190 8.338385
70.195 7.954783
70.200 8.606968
70.205 8.697717
70.210 8.85963
70.215 8.839501
70.220 8.982732
70.225 9.024076
70.230 9.171859
70.235 8.85998
70.240 9.663757
70.245 9.826609
70.250 10.280904
70.255 10.339025
70.260 10.444204
70.265 10.354572
70.270 10.167292
70.275 9.596753
70.280 9.519878
70.285 9.001449
70.290 9.021601
70.295 9.229552
70.300 9.101255
70.305 9.021906
70.310 9.238167
70.315 9.172869
70.320 9.142361
70.325 8.786025
70.330 8.639265
70.335 8.931879
70.340 9.091172
70.345 8.828015
70.350 8.4504
70.355 8.39022
70.360 8.819764
70.365 9.134235
70.370 8.980949
70.375 8.382824
70.380 8.262276
70.385 8.505058
70.390 8.445526
70.395 8.325823
70.400 8.145391
70.405 8.109001
70.410 8.316665
70.415 8.167449
70.420 8.161023
70.425 7.832808
70.430 7.725462
70.435 7.682312
70.440 7.999803
70.445 8.447594
70.450 8.323471
70.455 8.600204
70.460 9.05052
70.465 9.209702
70.470 9.017973
70.475 8.756855
70.480 8.661477
70.485 8.440113
70.490 7.957147
70.495 7.94286
70.500 8.112607
70.505 7.747351
70.510 7.133218
70.515 7.286998
70.520 7.701447
70.525 7.827996
70.530 7.476368
70.535 7.376966
70.540 7.739747
70.545 7.95443
70.550 7.463366
70.555 7.413093
70.560 7.766816
70.565 7.703013
70.570 8.095075
70.575 8.206207
70.580 8.105235
70.585 8.079949
70.590 8.210376
70.595 8.1537
70.600 8.180109
70.605 7.736826
70.610 7.778174
70.615 8.060849
70.620 8.28083
70.625 8.215741
70.630 8.563827
70.635 8.50432
70.640 8.332467
70.645 8.232869
70.650 8.569142
70.655 8.376086
70.660 8.186969
70.665 7.790549
70.670 7.960417
70.675 8.216793
70.680 8.067606
70.685 7.577626
70.690 7.650418
70.695 7.465438
70.700 7.582918
70.705 7.481518
70.710 7.373178
70.715 7.202414
70.720 7.626428
70.725 7.46466
70.730 7.430465
70.735 7.270317
70.740 7.072831
70.745 7.080353
70.750 7.651063
70.755 7.784973
70.760 7.921852
70.765 7.951343
70.770 7.927382
70.775 8.10785
70.780 8.216977
70.785 7.798914
70.790 7.91433
70.795 7.713809
70.800 7.347716
70.805 7.509089
70.810 7.580206
70.815 7.297104
70.820 6.800544
70.825 6.693075
70.830 6.828067
70.835 7.154936
70.840 7.142323
70.845 7.008148
70.850 6.905462
70.855 7.225112
70.860 6.890455
70.865 7.173859
70.870 7.423664
70.875 6.861374
70.880 7.017105
70.885 7.197429
70.890 7.043777
70.895 6.814971
70.900 6.384894
70.905 6.394549
70.910 7.131705
70.915 7.069487
70.920 6.980034
70.925 7.417746
70.930 7.532651
70.935 7.770233
70.940 7.630779
70.945 7.445252
70.950 7.969389
70.955 8.16513
70.960 8.058785
70.965 8.953791
70.970 8.992407
70.975 9.252856
70.980 9.365431
70.985 9.331252
70.990 9.020126
70.995 8.846655
71.000 8.464668
71.005 8.444902
71.010 8.350183
71.015 8.179796
71.020 8.16008
71.025 8.390218
71.030 8.590931
71.035 8.351468
71.040 8.309924
71.045 8.057629
71.050 7.901226
71.055 7.889555
71.060 8.096188
71.065 8.000688
71.070 7.889149
71.075 7.499338
71.080 7.436205
71.085 7.368007
71.090 7.275924
71.095 7.059585
71.100 7.027156
71.105 7.442976
71.110 7.558376
71.115 7.871958
71.120 7.71679
71.125 7.564571
71.130 7.569186
71.135 7.258233
71.140 7.273272
71.145 7.422709
71.150 7.184935
71.155 7.452812
71.160 7.868766
71.165 8.009746
71.170 8.017034
71.175 8.107998
71.180 7.807736
71.185 8.191405
71.190 8.185122
71.195 8.07934
71.200 7.875836
71.205 7.973191
71.210 8.042045
71.215 8.125141
71.220 7.882206
71.225 7.597643
71.230 7.521907
71.235 7.371273
71.240 7.226852
71.245 7.133486
71.250 7.112577
71.255 7.22135
71.260 7.376865
71.265 7.537889
71.270 8.223078
71.275 8.263628
71.280 8.186406
71.285 8.27863
71.290 8.086313
71.295 8.159174
71.300 8.211855
71.305 7.7137
71.310 7.976001
71.315 7.792233
71.320 7.860151
71.325 7.781873
71.330 8.13079
71.335 8.529222
71.340 8.292747
71.345 7.808684
71.350 7.823558
71.355 7.669435
71.360 7.720356
71.365 6.907757
71.370 6.807634
71.375 6.934169
71.380 7.161025
71.385 7.425248
71.390 7.703043
71.395 7.96528
71.400 7.813175
71.405 8.064762
71.410 8.456852
71.415 8.435887
71.420 8.22858
71.425 7.623323
71.430 7.397965
71.435 7.607067
71.440 7.653517
71.445 7.543858
71.450 8.202836
71.455 8.492721
71.460 8.941394
71.465 9.318659
71.470 9.095057
71.475 8.795473
71.480 8.962032
71.485 8.365051
71.490 8.156297
71.495 8.081161
71.500 7.987682
71.505 7.434596
71.510 7.232255
71.515 7.010226
71.520 7.365789
71.525 6.964079
71.530 6.772108
71.535 6.88267
71.540 7.699825
71.545 8.074158
71.550 8.214144
71.555 8.127279
71.560 8.632312
71.565 8.669477
71.570 8.511859
71.575 7.80327
71.580 7.545548
71.585 7.624891
71.590 7.864054
71.595 7.710997
71.600 7.478347
71.605 7.860226
71.610 7.918679
71.615 7.9884
71.620 8.219635
71.625 8.247526
71.630 8.747969
71.635 9.025987
71.640 8.992125
71.645 9.197348
71.650 8.823478
71.655 8.642713
71.660 8.404003
71.665 8.209283
71.670 8.114457
71.675 8.077189
71.680 8.21428
71.685 8.357702
71.690 8.309642
71.695 8.191524
71.700 8.355559
71.705 8.01444
71.710 8.079334
71.715 7.91982
71.720 7.472167
71.725 7.466624
71.730 7.462122
71.735 6.869444
71.740 6.663184
71.745 6.50032
71.750 6.777553
71.755 6.778018
71.760 6.713743
71.765 6.835969
71.770 7.229816
71.775 7.524257
71.780 7.620898
71.785 7.560367
71.790 7.647797
71.795 7.694961
71.800 7.425448
71.805 7.423934
71.810 7.436357
71.815 7.240429
71.820 7.152803
71.825 6.939781
71.830 6.851006
71.835 7.141282
71.840 7.418748
71.845 7.900669
71.850 8.404787
71.855 8.365389
71.860 8.968467
71.865 9.326377
71.870 9.142257
71.875 8.872762
71.880 8.419517
71.885 8.091081
71.890 7.992564
71.895 7.839428
71.900 7.547633
71.905 7.545621
71.910 7.675896
71.915 7.653811
71.920 7.865739
71.925 7.828075
71.930 7.690676
71.935 8.194937
71.940 8.299654
71.945 7.867473
71.950 8.078671
71.955 7.98642
71.960 8.043624
71.965 8.046483
71.970 7.694366
71.975 7.921821
71.980 8.343673
71.985 8.32543
71.990 8.50602
71.995 8.688466
72.000 8.798239
72.005 8.679021
72.010 8.578794
72.015 8.327209
72.020 8.50127
72.025 8.263109
72.030 8.024236
72.035 7.96594
72.040 8.017997
72.045 8.034751
72.050 7.927836
72.055 7.581215
72.060 7.592499
72.065 7.865818
72.070 7.951632
72.075 8.066313
72.080 8.098525
72.085 8.278595
72.090 8.622802
72.095 8.705469
72.100 8.70892
72.105 8.991401
72.110 8.950787
72.115 8.925177
72.120 8.749952
72.125 8.588982
72.130 8.402218
72.135 8.152227
72.140 8.066017
72.145 8.408648
72.150 8.579216
72.155 8.905228
72.160 9.054053
72.165 8.95717
72.170 9.031377
72.175 8.856323
72.180 8.258838
72.185 8.178161
72.190 7.613047
72.195 7.761078
72.200 7.939863
72.205 7.838054
72.210 7.670827
72.215 7.448045
72.220 7.559621
72.225 8.014345
72.230 7.801761
72.235 8.095814
72.240 7.89789
72.245 7.953783
72.250 8.421841
72.255 8.370444
72.260 8.223844
72.265 8.391929
72.270 8.078959
72.275 8.308675
72.280 8.30323
72.285 7.984188
72.290 8.000768
72.295 7.568821
72.300 7.444403
72.305 7.436298
72.310 7.274466
72.315 7.520389
72.320 7.373565
72.325 7.313831
72.330 7.217031
72.335 7.214146
72.340 7.386948
72.345 7.563211
72.350 7.592855
72.355 7.374426
72.360 7.769378
72.365 7.847317
72.370 7.689674
72.375 7.563571
72.380 7.280075
72.385 7.325991
72.390 7.716205
72.395 7.589469
72.400 7.422488
72.405 7.466561
72.410 7.541984
72.415 7.561831
72.420 7.459361
72.425 7.54942
72.430 8.01794
72.435 8.162667
72.440 8.023416
72.445 7.811415
72.450 7.617289
72.455 7.568063
72.460 7.339321
72.465 7.307585
72.470 7.249321
72.475 7.4544
72.480 8.045856
72.485 7.905092
72.490 7.920508
72.495 7.614623
72.500 7.555124
72.505 7.502608
72.510 7.37164
72.515 7.294794
72.520 7.67651
72.525 7.929814
72.530 7.707689
72.535 8.227143
72.540 8.22234
72.545 8.159589
72.550 8.144066
72.555 8.329052
72.560 8.350386
72.565 8.422602
72.570 8.047845
72.575 8.372029
72.580 8.398478
72.585 8.387028
72.590 8.367455
72.595 8.246079
72.600 8.251298
72.605 8.419724
72.610 8.223198
72.615 8.215227
72.620 8.168755
72.625 7.856193
72.630 8.166048
72.635 7.96794
72.640 7.704602
72.645 8.094422
72.650 8.044738
72.655 7.811985
72.660 7.542177
72.665 7.523217
72.670 7.572161
72.675 7.45284
72.680 7.013278
72.685 6.848328
72.690 7.157979
72.695 7.160118
72.700 7.044743
72.705 7.271286
72.710 7.415229
72.715 7.506835
72.720 7.041423
72.725 6.415138
72.730 6.543782
72.735 6.467156
72.740 6.531381
72.745 6.542659
72.750 6.487004
72.755 6.916572
72.760 7.563703
72.765 7.319354
72.770 7.368754
72.775 7.005527
72.780 6.88538
72.785 7.255597
72.790 7.601983
72.795 7.231733
72.800 7.129542
72.805 6.994221
72.810 7.403513
72.815 7.859379
72.820 7.221216
72.825 7.011948
72.830 6.96382
72.835 7.062556
72.840 7.217279
72.845 6.803076
72.850 6.514706
72.855 6.778924
72.860 6.890796
72.865 7.488955
72.870 7.391802
72.875 7.263837
72.880 6.993541
72.885 7.255625
72.890 7.064897
72.895 7.076416
72.900 7.321421
72.905 7.246015
72.910 7.4218
72.915 7.909034
72.920 7.960009
72.925 8.099741
72.930 7.983769
72.935 7.654852
72.940 7.78561
72.945 7.509417
72.950 7.298779
72.955 7.563161
72.960 7.66138
72.965 7.734819
72.970 7.960449
72.975 8.110009
72.980 7.89792
72.985 7.844218
72.990 7.619685
72.995 7.542247
73.000 7.333805
