!@!!GADDS PLOTSO FILE: Chi integration type
!@!!Title/SampleName: map-176
!@!!Comment: ?
!@!!User: Bruker Instrument Administrator
!@!!Site: University of Illinois Chicago
!@!!Frame: map-176_01_000.gfrm
!@!!Wavelengths    1.54184   1.54056   1.54439
!@!!Frame angles: 2Theta: 63.000 Omega: 50.000 Phi: 0.000 Chi: 90.000
!@!!Integration range: 2Theta: 53.000 to 73.000  Gamma: -105.000 to -75.000
!@!!Integration method: bin normalized
!@!N
!@!SS
!@!M
!@!L 0.0 0.0 0.0 0.0
!@!XDegrees
!@!YCounts
53.000 5.868818
53.005 6.028294
53.010 5.956438
53.015 5.752488
53.020 6.193295
53.025 6.060477
53.030 5.840635
53.035 6.091098
53.040 6.145758
53.045 6.1812
53.050 6.221771
53.055 6.254651
53.060 6.60036
53.065 6.531483
53.070 6.430259
53.075 6.872763
53.080 7.48325
53.085 7.637897
53.090 7.598919
53.095 7.621682
53.100 7.412434
53.105 6.984517
53.110 6.78943
53.115 6.226139
53.120 6.000363
53.125 5.888876
53.130 6.16481
53.135 6.322776
53.140 6.497759
53.145 6.522886
53.150 6.595261
53.155 6.622537
53.160 6.433137
53.165 6.013217
53.170 5.97029
53.175 5.881266
53.180 6.201344
53.185 6.010785
53.190 6.183307
53.195 6.48398
53.200 6.84373
53.205 6.795913
53.210 6.827787
53.215 6.691031
53.220 6.854413
53.225 6.881449
53.230 6.385874
53.235 6.475233
53.240 6.846674
53.245 7.005863
53.250 7.29209
53.255 7.54981
53.260 7.723387
53.265 7.93395
53.270 7.47243
53.275 6.9177
53.280 6.558276
53.285 5.93061
53.290 5.233494
53.295 4.894725
53.300 4.875051
53.305 5.243753
53.310 5.486452
53.315 5.609406
53.320 5.938751
53.325 6.270207
53.330 6.775976
53.335 6.795698
53.340 6.869019
53.345 6.70067
53.350 6.93196
53.355 6.99689
53.360 6.927331
53.365 7.008541
53.370 6.961734
53.375 6.713568
53.380 6.606292
53.385 6.328421
53.390 6.245949
53.395 6.034302
53.400 5.604614
53.405 5.547906
53.410 5.799098
53.415 6.209366
53.420 6.153497
53.425 6.401208
53.430 6.351008
53.435 6.642256
53.440 7.038368
53.445 7.143786
53.450 6.992463
53.455 7.302023
53.460 7.127957
53.465 7.205317
53.470 6.947436
53.475 6.363494
53.480 6.093146
53.485 5.915854
53.490 6.032524
53.495 5.972092
53.500 6.068364
53.505 6.332602
53.510 6.514265
53.515 6.538621
53.520 6.56496
53.525 6.528648
53.530 6.578415
53.535 6.686053
53.540 6.554724
53.545 6.383026
53.550 6.397988
53.555 6.257624
53.560 5.985389
53.565 5.889458
53.570 5.929698
53.575 6.234967
53.580 6.131591
53.585 6.030872
53.590 6.010562
53.595 6.564703
53.600 6.496423
53.605 6.250494
53.610 6.334329
53.615 6.291994
53.620 6.393065
53.625 6.486416
53.630 6.09755
53.635 6.102232
53.640 5.573499
53.645 5.601031
53.650 5.917211
53.655 5.993538
53.660 6.188797
53.665 6.182062
53.670 6.648008
53.675 7.07919
53.680 6.991867
53.685 6.875858
53.690 6.785484
53.695 6.454657
53.700 6.25623
53.705 5.942743
53.710 5.788863
53.715 6.039557
53.720 6.099786
53.725 6.1024
53.730 6.579342
53.735 6.643622
53.740 6.933308
53.745 7.188773
53.750 7.394797
53.755 7.138465
53.760 7.254253
53.765 7.193727
53.770 7.502639
53.775 7.167689
53.780 6.740728
53.785 6.687232
53.790 6.676876
53.795 6.665359
53.800 6.607247
53.805 6.335207
53.810 6.659351
53.815 6.571488
53.820 6.437853
53.825 6.531086
53.830 6.481592
53.835 6.652278
53.840 6.712391
53.845 6.619858
53.850 7.052702
53.855 7.496019
53.860 7.798989
53.865 7.71464
53.870 7.350417
53.875 7.444002
53.880 7.248168
53.885 6.975304
53.890 7.004024
53.895 6.760367
53.900 6.583707
53.905 6.726298
53.910 7.031353
53.915 7.102678
53.920 7.085336
53.925 6.727024
53.930 6.62421
53.935 6.916779
53.940 6.975944
53.945 6.756998
53.950 6.606714
53.955 6.326359
53.960 6.504108
53.965 6.718166
53.970 6.649198
53.975 6.422941
53.980 6.412907
53.985 6.303105
53.990 6.217194
53.995 6.026822
54.000 6.221075
54.005 6.59517
54.010 6.581254
54.015 6.705006
54.020 7.056857
54.025 7.201021
54.030 7.172534
54.035 6.701375
54.040 6.611809
54.045 6.86142
54.050 7.024937
54.055 6.633333
54.060 6.588149
54.065 6.648359
54.070 6.905559
54.075 6.668911
54.080 6.401313
54.085 6.444438
54.090 6.36101
54.095 6.311003
54.100 6.037709
54.105 6.071129
54.110 6.235005
54.115 6.32643
54.120 6.174621
54.125 6.462595
54.130 6.943882
54.135 6.747833
54.140 6.643193
54.145 6.811681
54.150 7.052344
54.155 7.593618
54.160 7.81214
54.165 7.688278
54.170 7.433223
54.175 7.180314
54.180 6.916716
54.185 6.586096
54.190 6.035131
54.195 5.822258
54.200 6.030455
54.205 6.655446
54.210 7.214574
54.215 7.369554
54.220 7.407571
54.225 7.455114
54.230 7.683566
54.235 7.851855
54.240 7.552792
54.245 7.423672
54.250 7.430218
54.255 7.363198
54.260 7.380555
54.265 7.231095
54.270 7.027969
54.275 7.329665
54.280 7.155709
54.285 7.289342
54.290 7.121617
54.295 6.940798
54.300 6.791523
54.305 7.059513
54.310 6.592916
54.315 6.531821
54.320 6.734879
54.325 6.905526
54.330 7.169122
54.335 7.201855
54.340 7.297108
54.345 7.552643
54.350 7.596101
54.355 7.606637
54.360 7.96119
54.365 8.189611
54.370 7.652007
54.375 7.66767
54.380 7.620523
54.385 7.505483
54.390 7.154909
54.395 6.691471
54.400 6.588278
54.405 7.023906
54.410 7.059171
54.415 7.203899
54.420 7.054671
54.425 6.996195
54.430 6.718748
54.435 6.561104
54.440 6.498171
54.445 6.219314
54.450 6.334144
54.455 6.302983
54.460 6.7295
54.465 6.909718
54.470 6.926733
54.475 7.176117
54.480 7.069631
54.485 7.124316
54.490 7.486347
54.495 7.653675
54.500 7.942953
54.505 7.557308
54.510 7.009053
54.515 6.918314
54.520 6.871542
54.525 7.223952
54.530 6.668458
54.535 6.364984
54.540 6.580972
54.545 7.044701
54.550 6.844674
54.555 6.724663
54.560 6.301727
54.565 6.460437
54.570 6.524015
54.575 6.423913
54.580 6.526628
54.585 6.453222
54.590 6.111441
54.595 6.041062
54.600 5.956233
54.605 6.402687
54.610 6.895865
54.615 7.144448
54.620 7.140863
54.625 7.332672
54.630 7.400705
54.635 7.47965
54.640 6.79646
54.645 6.039559
54.650 5.855608
54.655 6.020585
54.660 5.991852
54.665 5.791627
54.670 5.886184
54.675 6.072722
54.680 6.061026
54.685 5.966245
54.690 6.140591
54.695 6.211705
54.700 6.374273
54.705 6.162146
54.710 6.465742
54.715 6.9076
54.720 7.288812
54.725 7.16911
54.730 7.339169
54.735 7.448956
54.740 7.531016
54.745 7.466781
54.750 7.325799
54.755 7.447684
54.760 7.476373
54.765 7.125542
54.770 7.261767
54.775 7.236796
54.780 7.047148
54.785 6.85459
54.790 6.282279
54.795 6.367537
54.800 6.45154
54.805 6.70487
54.810 6.795364
54.815 6.561533
54.820 6.82296
54.825 6.89399
54.830 7.175842
54.835 7.38618
54.840 7.263228
54.845 7.404334
54.850 7.581007
54.855 7.297793
54.860 7.395673
54.865 7.012955
54.870 6.878074
54.875 6.975688
54.880 7.229238
54.885 7.554846
54.890 8.075403
54.895 8.278869
54.900 8.172693
54.905 7.879064
54.910 7.694984
54.915 7.809782
54.920 7.135672
54.925 6.748683
54.930 6.67612
54.935 6.716465
54.940 6.734468
54.945 6.342669
54.950 6.288373
54.955 6.643747
54.960 6.699586
54.965 6.658933
54.970 6.546028
54.975 6.839597
54.980 6.923275
54.985 7.020344
54.990 7.049063
54.995 7.278547
55.000 7.730629
55.005 7.786194
55.010 7.674403
55.015 7.500998
55.020 7.011459
55.025 7.079925
55.030 7.09392
55.035 6.826688
55.040 6.651597
55.045 6.541207
55.050 6.828487
55.055 7.143039
55.060 7.221979
55.065 7.008612
55.070 7.118161
55.075 7.44838
55.080 7.582031
55.085 7.764387
55.090 7.806169
55.095 7.940903
55.100 8.191653
55.105 8.271677
55.110 8.135136
55.115 8.046002
55.120 7.854655
55.125 7.638034
55.130 7.534741
55.135 7.855726
55.140 8.08944
55.145 8.249195
55.150 8.223144
55.155 8.350911
55.160 8.626605
55.165 8.21475
55.170 7.461683
55.175 7.340826
55.180 7.126072
55.185 6.978715
55.190 7.053394
55.195 6.910562
55.200 7.096895
55.205 7.072926
55.210 6.895586
55.215 7.092814
55.220 7.264347
55.225 7.310417
55.230 7.319168
55.235 7.47401
55.240 7.508102
55.245 7.753216
55.250 7.802701
55.255 7.227281
55.260 7.054101
55.265 7.08605
55.270 7.398207
55.275 7.737226
55.280 7.639602
55.285 7.819971
55.290 8.005099
55.295 8.324687
55.300 8.286369
55.305 8.150568
55.310 8.035455
55.315 7.853572
55.320 7.934203
55.325 8.470296
55.330 8.013051
55.335 8.010232
55.340 7.976403
55.345 7.922714
55.350 7.967546
55.355 7.747987
55.360 7.365339
55.365 7.590223
55.370 7.232163
55.375 6.845577
55.380 6.853126
55.385 6.474544
55.390 6.889546
55.395 7.067324
55.400 7.15589
55.405 7.291405
55.410 7.331771
55.415 7.553655
55.420 7.478072
55.425 6.696777
55.430 6.505142
55.435 6.228507
55.440 6.760373
55.445 7.094672
55.450 6.99041
55.455 7.287232
55.460 7.39767
55.465 6.933653
55.470 6.884541
55.475 6.65313
55.480 6.632725
55.485 6.714036
55.490 6.434422
55.495 6.747177
55.500 7.249603
55.505 7.707148
55.510 8.036568
55.515 7.785487
55.520 7.674096
55.525 7.915215
55.530 7.833596
55.535 7.347523
55.540 6.64612
55.545 6.16562
55.550 6.163264
55.555 6.685531
55.560 6.719993
55.565 6.642764
55.570 6.942453
55.575 7.072111
55.580 6.862354
55.585 7.511718
55.590 7.311256
55.595 7.367469
55.600 7.330346
55.605 7.213372
55.610 7.115065
55.615 7.029036
55.620 6.309937
55.625 6.171382
55.630 5.980417
55.635 5.929267
55.640 6.557902
55.645 6.775893
55.650 7.182919
55.655 7.391121
55.660 7.3838
55.665 7.605452
55.670 7.244504
55.675 7.029599
55.680 6.904238
55.685 6.416548
55.690 6.307404
55.695 5.991744
55.700 6.008441
55.705 6.107377
55.710 5.9726
55.715 6.070007
55.720 6.480411
55.725 6.418431
55.730 6.765816
55.735 7.024756
55.740 7.380535
55.745 7.302149
55.750 7.211953
55.755 7.350829
55.760 7.690958
55.765 7.462246
55.770 6.952001
55.775 6.766533
55.780 6.741117
55.785 6.652109
55.790 6.642908
55.795 6.680942
55.800 6.993943
55.805 7.167201
55.810 7.356353
55.815 7.414252
55.820 7.394768
55.825 7.099124
55.830 6.544917
55.835 6.667592
55.840 7.240561
55.845 6.936386
55.850 7.299313
55.855 7.449374
55.860 7.380569
55.865 7.646277
55.870 7.581904
55.875 7.757543
55.880 8.268621
55.885 8.129128
55.890 8.140089
55.895 8.232365
55.900 8.34628
55.905 8.356891
55.910 8.079782
55.915 7.872107
55.920 7.80938
55.925 7.967071
55.930 8.138506
55.935 7.914949
55.940 7.773797
55.945 8.19518
55.950 8.249229
55.955 7.95597
55.960 7.676394
55.965 7.593921
55.970 7.762197
55.975 7.392557
55.980 7.188323
55.985 7.431297
55.990 7.650455
55.995 7.561446
56.000 7.544561
56.005 7.178456
56.010 6.863984
56.015 6.446725
56.020 6.215906
56.025 6.450393
56.030 6.294326
56.035 6.230208
56.040 6.241171
56.045 6.25307
56.050 6.093688
56.055 6.475489
56.060 6.323376
56.065 6.504719
56.070 6.323121
56.075 6.711964
56.080 7.003239
56.085 6.868374
56.090 6.679327
56.095 6.489419
56.100 6.456725
56.105 6.395976
56.110 6.389791
56.115 6.372838
56.120 6.544103
56.125 6.420317
56.130 6.352248
56.135 6.337309
56.140 6.251919
56.145 6.123131
56.150 6.491766
56.155 6.483675
56.160 6.673861
56.165 6.993537
56.170 7.537907
56.175 7.935962
56.180 7.92995
56.185 7.700141
56.190 7.576097
56.195 7.77336
56.200 7.69933
56.205 7.177504
56.210 7.140557
56.215 7.831888
56.220 8.074065
56.225 8.44631
56.230 8.241294
56.235 8.351592
56.240 8.890005
56.245 8.792192
56.250 8.152534
56.255 8.173763
56.260 8.17546
56.265 8.301924
56.270 8.43952
56.275 7.999867
56.280 7.66324
56.285 7.175679
56.290 7.330695
56.295 7.338525
56.300 7.267604
56.305 7.34801
56.310 7.590032
56.315 7.838562
56.320 8.376318
56.325 8.1974
56.330 8.115096
56.335 7.904919
56.340 7.75181
56.345 7.806699
56.350 7.868632
56.355 7.692775
56.360 7.553436
56.365 7.418219
56.370 7.680144
56.375 7.948831
56.380 8.08107
56.385 8.05435
56.390 7.805393
56.395 7.773312
56.400 8.386817
56.405 8.568417
56.410 7.904688
56.415 8.009329
56.420 8.591963
56.425 9.027494
56.430 9.15911
56.435 8.625587
56.440 8.477262
56.445 8.960128
56.450 8.979067
56.455 8.574332
56.460 8.42983
56.465 8.072685
56.470 7.988281
56.475 7.99018
56.480 7.7518
56.485 7.639909
56.490 7.889274
56.495 8.391551
56.500 8.654316
56.505 8.70745
56.510 8.751756
56.515 8.863424
56.520 9.181775
56.525 9.013849
56.530 8.465931
56.535 8.317193
56.540 8.057558
56.545 7.892234
56.550 7.742194
56.555 7.663044
56.560 7.634051
56.565 8.069425
56.570 8.981817
56.575 9.724933
56.580 9.85871
56.585 9.8781
56.590 9.397791
56.595 8.998719
56.600 8.449591
56.605 7.725654
56.610 7.168056
56.615 7.385458
56.620 7.706752
56.625 7.996901
56.630 8.001805
56.635 7.960611
56.640 8.405987
56.645 8.423205
56.650 8.046528
56.655 7.7684
56.660 8.096515
56.665 8.042875
56.670 8.175786
56.675 8.067357
56.680 8.461099
56.685 8.470007
56.690 8.329064
56.695 8.178811
56.700 8.251657
56.705 8.380382
56.710 8.377473
56.715 8.047318
56.720 8.060011
56.725 8.125709
56.730 8.682076
56.735 8.712659
56.740 8.347421
56.745 8.210816
56.750 8.397827
56.755 8.359269
56.760 8.104438
56.765 7.566549
56.770 7.450194
56.775 7.184284
56.780 7.007423
56.785 6.841851
56.790 6.964455
56.795 7.068592
56.800 7.062992
56.805 7.622283
56.810 8.18915
56.815 8.175249
56.820 8.259592
56.825 8.364447
56.830 8.53054
56.835 8.424512
56.840 8.178329
56.845 8.085991
56.850 8.378735
56.855 8.085755
56.860 7.788182
56.865 7.498369
56.870 7.444883
56.875 7.169762
56.880 6.895133
56.885 6.897063
56.890 7.405182
56.895 7.722965
56.900 7.74287
56.905 8.052273
56.910 8.021909
56.915 7.977311
56.920 7.943154
56.925 7.522118
56.930 7.334821
56.935 7.163008
56.940 6.825588
56.945 7.089511
56.950 7.04283
56.955 6.963178
56.960 6.640616
56.965 6.92753
56.970 7.479246
56.975 7.603017
56.980 7.958607
56.985 8.20722
56.990 8.57444
56.995 8.851821
57.000 8.754623
57.005 8.252024
57.010 8.292727
57.015 7.986127
57.020 7.679496
57.025 7.670028
57.030 7.827453
57.035 7.791664
57.040 8.210407
57.045 8.216714
57.050 8.476216
57.055 8.623303
57.060 8.364473
57.065 8.257299
57.070 8.089828
57.075 7.844182
57.080 7.605893
57.085 7.362934
57.090 7.298067
57.095 7.29263
57.100 7.385883
57.105 7.699371
57.110 7.835679
57.115 8.03516
57.120 8.029976
57.125 8.105558
57.130 7.934347
57.135 7.391109
57.140 7.195305
57.145 7.12958
57.150 7.136357
57.155 7.282552
57.160 7.451658
57.165 7.791037
57.170 8.437851
57.175 9.240244
57.180 9.266128
57.185 9.660291
57.190 9.425338
57.195 9.357033
57.200 9.315373
57.205 8.919645
57.210 8.163404
57.215 8.130219
57.220 7.532106
57.225 7.667914
57.230 7.561095
57.235 7.252812
57.240 7.138281
57.245 7.052036
57.250 6.864459
57.255 7.047986
57.260 7.105742
57.265 7.199574
57.270 7.537904
57.275 8.180099
57.280 9.353101
57.285 9.916636
57.290 9.677242
57.295 9.609695
57.300 9.758646
57.305 9.051403
57.310 8.459374
57.315 8.127792
57.320 8.06817
57.325 8.304308
57.330 8.141253
57.335 8.003096
57.340 8.207028
57.345 7.930459
57.350 7.201056
57.355 7.001944
57.360 6.584204
57.365 6.640499
57.370 6.609703
57.375 6.705392
57.380 6.721058
57.385 6.812571
57.390 6.771755
57.395 7.050672
57.400 7.162938
57.405 7.650124
57.410 7.950537
57.415 8.063706
57.420 8.01431
57.425 8.227576
57.430 8.168877
57.435 8.108949
57.440 7.620244
57.445 7.431018
57.450 7.250778
57.455 7.476184
57.460 7.691967
57.465 7.830313
57.470 8.17596
57.475 8.150072
57.480 8.08157
57.485 8.491459
57.490 8.137678
57.495 7.941154
57.500 7.650909
57.505 7.206612
57.510 7.312502
57.515 7.29899
57.520 7.082219
57.525 7.092133
57.530 6.708667
57.535 6.858602
57.540 7.241329
57.545 7.282827
57.550 7.684225
57.555 7.957993
57.560 8.310737
57.565 8.622904
57.570 8.65463
57.575 8.425784
57.580 8.503677
57.585 8.043305
57.590 7.946975
57.595 7.771882
57.600 7.691248
57.605 7.985227
57.610 8.304844
57.615 8.492389
57.620 9.003457
57.625 8.952081
57.630 8.855701
57.635 8.760336
57.640 8.38155
57.645 8.047824
57.650 7.770556
57.655 7.695507
57.660 7.497741
57.665 7.613697
57.670 7.641011
57.675 7.678259
57.680 7.933571
57.685 7.76481
57.690 7.313479
57.695 7.307961
57.700 7.169141
57.705 7.056825
57.710 6.695916
57.715 6.422233
57.720 6.826325
57.725 7.175532
57.730 7.074028
57.735 7.049789
57.740 7.022171
57.745 7.27821
57.750 7.626317
57.755 7.253976
57.760 7.350096
57.765 7.251027
57.770 7.096351
57.775 7.317567
57.780 7.201605
57.785 6.850327
57.790 7.058301
57.795 6.980453
57.800 7.09123
57.805 7.274816
57.810 7.410698
57.815 7.510972
57.820 7.64561
57.825 7.431311
57.830 7.395014
57.835 7.542292
57.840 7.486608
57.845 7.253418
57.850 6.890999
57.855 6.769322
57.860 6.785385
57.865 7.260862
57.870 7.720799
57.875 7.639942
57.880 7.900949
57.885 8.178436
57.890 8.362896
57.895 8.268488
57.900 7.975502
57.905 7.523256
57.910 7.26366
57.915 7.058123
57.920 7.11109
57.925 7.145143
57.930 7.350285
57.935 7.417966
57.940 7.77436
57.945 8.193479
57.950 8.067925
57.955 8.030789
57.960 7.857728
57.965 7.541078
57.970 7.420977
57.975 7.154304
57.980 6.795193
57.985 6.619775
57.990 6.434994
57.995 6.824339
58.000 7.075212
58.005 7.179573
58.010 7.502785
58.015 7.969521
58.020 8.322983
58.025 8.511831
58.030 8.129759
58.035 7.982883
58.040 7.581197
58.045 7.022975
58.050 6.781513
58.055 7.316992
58.060 7.433963
58.065 7.809252
58.070 8.070711
58.075 8.143431
58.080 7.993965
58.085 7.695828
58.090 7.127986
58.095 7.035295
58.100 6.738259
58.105 6.496669
58.110 6.817968
58.115 7.155377
58.120 7.291685
58.125 7.083765
58.130 6.705985
58.135 6.827351
58.140 6.749326
58.145 6.446198
58.150 6.215817
58.155 6.412969
58.160 6.715594
58.165 6.731339
58.170 6.585594
58.175 6.886279
58.180 7.449647
58.185 7.898836
58.190 7.796386
58.195 7.322244
58.200 7.563593
58.205 7.68335
58.210 7.282642
58.215 7.132435
58.220 7.15104
58.225 7.387688
58.230 7.774366
58.235 7.827776
58.240 7.941679
58.245 8.114298
58.250 8.240858
58.255 8.266289
58.260 8.109566
58.265 8.213732
58.270 8.208103
58.275 8.591043
58.280 8.704427
58.285 8.361864
58.290 8.110926
58.295 8.373361
58.300 8.084351
58.305 7.931935
58.310 7.860672
58.315 7.940283
58.320 7.8929
58.325 7.978222
58.330 8.095151
58.335 8.403251
58.340 8.240145
58.345 7.992586
58.350 7.915144
58.355 7.848422
58.360 7.597345
58.365 7.44503
58.370 7.296919
58.375 7.684924
58.380 7.745295
58.385 7.632068
58.390 7.675796
58.395 7.694204
58.400 7.668417
58.405 7.963385
58.410 7.487556
58.415 7.297056
58.420 7.464621
58.425 7.392153
58.430 7.631993
58.435 7.726659
58.440 7.769776
58.445 8.227057
58.450 8.249979
58.455 8.209017
58.460 8.296477
58.465 8.241371
58.470 8.162832
58.475 8.160512
58.480 7.811705
58.485 7.743849
58.490 7.66656
58.495 7.749144
58.500 7.409986
58.505 7.323267
58.510 7.16858
58.515 7.578828
58.520 7.565476
58.525 7.481658
58.530 7.474242
58.535 7.814237
58.540 7.622878
58.545 7.365916
58.550 6.609526
58.555 6.745236
58.560 7.031501
58.565 7.38479
58.570 7.437545
58.575 7.622006
58.580 7.707516
58.585 7.97575
58.590 7.942673
58.595 7.583341
58.600 7.223348
58.605 6.863312
58.610 6.540747
58.615 6.512793
58.620 6.601934
58.625 7.113909
58.630 7.652581
58.635 7.896122
58.640 8.390192
58.645 8.757568
58.650 9.047935
58.655 9.083115
58.660 8.325274
58.665 7.736457
58.670 7.28511
58.675 6.864677
58.680 6.837467
58.685 6.861698
58.690 6.665131
58.695 7.304651
58.700 7.28056
58.705 7.057003
58.710 7.197948
58.715 7.564237
58.720 7.432155
58.725 7.612582
58.730 7.615954
58.735 8.108692
58.740 8.823592
58.745 8.872795
58.750 8.435834
58.755 8.523782
58.760 8.544152
58.765 8.44416
58.770 8.346043
58.775 8.382249
58.780 8.356107
58.785 8.014896
58.790 7.869216
58.795 7.787674
58.800 7.606296
58.805 7.992819
58.810 7.894945
58.815 7.896734
58.820 8.025765
58.825 8.176664
58.830 8.149014
58.835 8.21464
58.840 7.7238
58.845 7.898879
58.850 8.181877
58.855 8.253865
58.860 8.201924
58.865 8.38105
58.870 8.394335
58.875 8.376353
58.880 7.788345
58.885 7.632261
58.890 7.563325
58.895 7.534491
58.900 7.312423
58.905 6.801788
58.910 6.57803
58.915 6.687977
58.920 6.769339
58.925 6.908027
58.930 6.832809
58.935 7.057051
58.940 7.672388
58.945 8.110508
58.950 8.073429
58.955 7.776319
58.960 7.893686
58.965 7.705444
58.970 7.756204
58.975 7.60599
58.980 7.616263
58.985 7.729161
58.990 7.73529
58.995 7.715405
59.000 8.052028
59.005 8.093436
59.010 8.247704
59.015 7.772014
59.020 7.99305
59.025 8.161878
59.030 7.912376
59.035 7.825765
59.040 8.062881
59.045 8.244635
59.050 8.63154
59.055 8.563606
59.060 8.72276
59.065 9.096308
59.070 9.082384
59.075 8.358413
59.080 8.007731
59.085 7.7914
59.090 7.760946
59.095 7.848444
59.100 7.796971
59.105 8.124199
59.110 8.803492
59.115 8.843463
59.120 8.823392
59.125 8.850664
59.130 8.719176
59.135 8.78167
59.140 8.418381
59.145 7.504169
59.150 7.532888
59.155 7.652974
59.160 7.315548
59.165 6.838566
59.170 6.632669
59.175 6.989834
59.180 7.681907
59.185 7.959191
59.190 7.671815
59.195 7.745314
59.200 7.91336
59.205 7.937336
59.210 7.778717
59.215 7.920954
59.220 7.55124
59.225 8.010497
59.230 8.302979
59.235 8.125334
59.240 7.96828
59.245 7.716535
59.250 7.445231
59.255 7.230254
59.260 6.744143
59.265 7.040293
59.270 7.407233
59.275 7.4416
59.280 7.595594
59.285 7.42594
59.290 7.815412
59.295 8.339104
59.300 8.436888
59.305 8.251959
59.310 8.187776
59.315 8.108734
59.320 7.935337
59.325 7.781504
59.330 7.165813
59.335 6.503439
59.340 6.382611
59.345 6.387636
59.350 6.554546
59.355 6.762021
59.360 7.165964
59.365 7.531029
59.370 7.75846
59.375 8.003278
59.380 7.956423
59.385 8.175582
59.390 8.445273
59.395 8.104613
59.400 8.12129
59.405 8.01661
59.410 7.865962
59.415 7.940107
59.420 7.704398
59.425 7.812995
59.430 8.032573
59.435 8.164252
59.440 8.72611
59.445 8.917624
59.450 9.028778
59.455 9.035488
59.460 8.923444
59.465 8.662653
59.470 8.893876
59.475 8.651589
59.480 8.678557
59.485 8.287764
59.490 8.128151
59.495 8.204297
59.500 8.316667
59.505 8.020548
59.510 8.013188
59.515 8.363971
59.520 8.593491
59.525 8.493849
59.530 8.209689
59.535 8.261683
59.540 8.24056
59.545 7.939553
59.550 7.482307
59.555 7.659259
59.560 7.824168
59.565 7.839638
59.570 7.467987
59.575 7.754543
59.580 7.91065
59.585 7.697646
59.590 7.919159
59.595 8.078174
59.600 8.021979
59.605 8.127669
59.610 7.980334
59.615 8.106691
59.620 8.182219
59.625 7.880572
59.630 7.629097
59.635 7.8182
59.640 7.576554
59.645 7.462206
59.650 7.590572
59.655 7.622176
59.660 7.882009
59.665 8.488755
59.670 8.553016
59.675 8.781938
59.680 8.908874
59.685 8.915596
59.690 9.365251
59.695 9.444533
59.700 9.346694
59.705 9.489758
59.710 9.47288
59.715 9.098347
59.720 8.720524
59.725 8.362893
59.730 7.850842
59.735 7.425327
59.740 7.052493
59.745 7.164683
59.750 7.562656
59.755 7.70774
59.760 7.75324
59.765 8.07103
59.770 8.14284
59.775 8.79643
59.780 8.595513
59.785 8.432854
59.790 8.56079
59.795 8.592377
59.800 8.576354
59.805 8.406564
59.810 8.091054
59.815 8.260264
59.820 8.575613
59.825 8.840437
59.830 8.918652
59.835 8.754836
59.840 9.008061
59.845 8.918806
59.850 8.609484
59.855 8.362364
59.860 8.1849
59.865 8.049224
59.870 8.32831
59.875 8.299137
59.880 8.443582
59.885 8.20346
59.890 8.126081
59.895 8.051636
59.900 8.003824
59.905 7.59593
59.910 7.45363
59.915 7.393615
59.920 7.549937
59.925 7.860677
59.930 8.140491
59.935 8.16952
59.940 8.261986
59.945 8.179807
59.950 8.131284
59.955 8.073869
59.960 7.681567
59.965 7.300122
59.970 7.294209
59.975 7.281373
59.980 7.115556
59.985 7.126507
59.990 7.02966
59.995 7.025871
60.000 7.069304
60.005 6.879847
60.010 7.185853
60.015 7.782133
60.020 8.163824
60.025 8.575587
60.030 8.656322
60.035 8.869537
60.040 9.1574
60.045 8.988335
60.050 8.579527
60.055 8.430353
60.060 8.018194
60.065 7.793278
60.070 7.436325
60.075 7.407297
60.080 7.258008
60.085 7.106632
60.090 7.038374
60.095 7.219618
60.100 7.24233
60.105 7.570952
60.110 7.399401
60.115 7.311552
60.120 7.428532
60.125 7.313313
60.130 7.584665
60.135 7.484503
60.140 7.014113
60.145 6.971448
60.150 7.528814
60.155 7.719204
60.160 8.12108
60.165 8.099141
60.170 8.40555
60.175 8.739682
60.180 8.986493
60.185 8.987514
60.190 9.103679
60.195 8.669274
60.200 8.668376
60.205 8.764147
60.210 8.880101
60.215 8.70184
60.220 8.378769
60.225 8.391341
60.230 8.398324
60.235 8.240217
60.240 7.853752
60.245 7.240655
60.250 7.244912
60.255 7.445012
60.260 7.150698
60.265 7.166528
60.270 6.748331
60.275 6.855335
60.280 7.282338
60.285 7.31064
60.290 6.68569
60.295 6.841902
60.300 6.944558
60.305 6.944451
60.310 6.991211
60.315 7.108931
60.320 7.339121
60.325 7.690984
60.330 7.842579
60.335 8.195121
60.340 8.637172
60.345 8.469612
60.350 8.305424
60.355 8.126611
60.360 8.096963
60.365 7.691082
60.370 7.105105
60.375 6.910594
60.380 7.436612
60.385 7.579059
60.390 7.50266
60.395 7.511238
60.400 7.762973
60.405 7.967691
60.410 8.186223
60.415 8.088773
60.420 8.083585
60.425 8.062227
60.430 8.277599
60.435 8.174666
60.440 7.956937
60.445 7.797925
60.450 7.743513
60.455 7.455821
60.460 7.584912
60.465 7.762475
60.470 7.645036
60.475 7.612368
60.480 7.71699
60.485 8.01901
60.490 8.11558
60.495 7.916124
60.500 7.611781
60.505 7.941267
60.510 8.172477
60.515 8.195945
60.520 7.816086
60.525 7.876417
60.530 8.349451
60.535 8.722057
60.540 8.866474
60.545 9.161088
60.550 9.161945
60.555 9.142459
60.560 9.11869
60.565 8.878532
60.570 8.547853
60.575 8.06405
60.580 7.446229
60.585 7.183949
60.590 7.321011
60.595 7.243647
60.600 7.078661
60.605 7.644327
60.610 8.022218
60.615 8.257901
60.620 8.593522
60.625 8.397436
60.630 8.419953
60.635 8.535164
60.640 7.978062
60.645 7.559635
60.650 7.305012
60.655 7.159134
60.660 7.410074
60.665 7.419485
60.670 7.48726
60.675 7.546754
60.680 7.819796
60.685 8.080682
60.690 7.78505
60.695 7.956153
60.700 8.266788
60.705 7.90139
60.710 7.693095
60.715 7.582834
60.720 7.215978
60.725 7.093958
60.730 6.838238
60.735 6.818213
60.740 7.285148
60.745 7.739389
60.750 7.849941
60.755 8.200263
60.760 8.680278
60.765 8.968617
60.770 8.701294
60.775 8.025567
60.780 7.791902
60.785 7.953099
60.790 8.024757
60.795 7.739625
60.800 7.091634
60.805 6.853318
60.810 7.204953
60.815 7.39783
60.820 7.497487
60.825 7.311675
60.830 7.481232
60.835 8.222383
60.840 8.527565
60.845 8.720451
60.850 8.843786
60.855 8.786489
60.860 8.977435
60.865 9.028131
60.870 8.554827
60.875 8.369749
60.880 8.100429
60.885 7.790457
60.890 7.370523
60.895 7.347113
60.900 7.421974
60.905 7.411608
60.910 7.485797
60.915 7.211345
60.920 7.598893
60.925 7.907101
60.930 7.843065
60.935 7.649729
60.940 7.655659
60.945 7.692483
60.950 7.761091
60.955 7.364417
60.960 6.994569
60.965 6.797943
60.970 6.996656
60.975 7.096364
60.980 7.449913
60.985 7.966819
60.990 7.871465
60.995 8.06321
61.000 7.844023
61.005 7.775283
61.010 7.640284
61.015 7.251933
61.020 6.630052
61.025 6.664722
61.030 6.710538
61.035 6.679804
61.040 6.561843
61.045 6.894819
61.050 6.885188
61.055 7.430435
61.060 7.788153
61.065 7.802513
61.070 7.828748
61.075 7.787285
61.080 7.526406
61.085 7.619771
61.090 7.707112
61.095 7.56614
61.100 7.452579
61.105 7.428534
61.110 7.574575
61.115 7.703281
61.120 7.605554
61.125 7.362261
61.130 7.850713
61.135 8.064923
61.140 7.913208
61.145 7.836803
61.150 7.527053
61.155 7.549119
61.160 7.350997
61.165 6.895331
61.170 6.803349
61.175 6.880012
61.180 6.787491
61.185 6.982698
61.190 6.984303
61.195 7.542951
61.200 7.8535
61.205 8.12848
61.210 8.109795
61.215 8.078682
61.220 7.886563
61.225 8.085109
61.230 7.800333
61.235 7.641296
61.240 7.330748
61.245 7.445665
61.250 7.462348
61.255 7.591141
61.260 7.349597
61.265 6.856403
61.270 6.812496
61.275 7.218429
61.280 7.764853
61.285 7.345163
61.290 7.406808
61.295 7.524371
61.300 7.43434
61.305 7.028345
61.310 6.604726
61.315 6.478354
61.320 6.930936
61.325 7.000431
61.330 6.977469
61.335 7.340663
61.340 7.397182
61.345 7.422498
61.350 7.194612
61.355 7.436632
61.360 7.620163
61.365 7.920743
61.370 7.981746
61.375 8.206095
61.380 8.164218
61.385 8.287768
61.390 8.092678
61.395 7.624331
61.400 7.262588
61.405 6.843356
61.410 6.764482
61.415 6.680396
61.420 6.842567
61.425 6.851716
61.430 7.043122
61.435 7.891466
61.440 8.360661
61.445 8.236172
61.450 8.607671
61.455 8.569407
61.460 8.698973
61.465 8.720635
61.470 8.308131
61.475 8.176774
61.480 8.16158
61.485 7.845638
61.490 7.715854
61.495 7.19047
61.500 6.986301
61.505 7.069716
61.510 7.14986
61.515 7.312016
61.520 7.194277
61.525 6.925371
61.530 7.185587
61.535 7.190317
61.540 7.525268
61.545 7.783897
61.550 8.378028
61.555 8.792479
61.560 9.34333
61.565 9.585983
61.570 9.606236
61.575 9.218237
61.580 8.995211
61.585 8.416428
61.590 8.177581
61.595 8.188868
61.600 8.202723
61.605 8.290913
61.610 8.508268
61.615 8.632248
61.620 8.986026
61.625 9.268061
61.630 9.187895
61.635 8.934112
61.640 8.674137
61.645 8.422502
61.650 8.185596
61.655 7.800308
61.660 7.746143
61.665 7.458401
61.670 7.627506
61.675 7.893691
61.680 7.831782
61.685 8.35119
61.690 8.43337
61.695 8.086514
61.700 7.882231
61.705 7.993979
61.710 8.063794
61.715 8.051741
61.720 7.630056
61.725 7.398369
61.730 7.478298
61.735 7.775278
61.740 7.411652
61.745 7.246223
61.750 7.392874
61.755 7.572542
61.760 7.719728
61.765 7.797901
61.770 7.798826
61.775 8.205875
61.780 8.172234
61.785 7.654625
61.790 7.751318
61.795 7.705478
61.800 7.680711
61.805 7.444529
61.810 7.332243
61.815 7.58573
61.820 8.061291
61.825 7.99209
61.830 8.267589
61.835 8.386658
61.840 8.644485
61.845 8.740775
61.850 8.670842
61.855 8.513014
61.860 8.278343
61.865 8.165526
61.870 8.047997
61.875 8.083845
61.880 8.246557
61.885 8.483704
61.890 8.541727
61.895 8.924533
61.900 8.933768
61.905 9.04216
61.910 8.825624
61.915 8.727913
61.920 8.59834
61.925 8.8804
61.930 8.718198
61.935 8.549342
61.940 8.316971
61.945 8.124317
61.950 7.684074
61.955 7.559932
61.960 7.206275
61.965 7.461977
61.970 8.007859
61.975 8.273537
61.980 8.381862
61.985 8.539028
61.990 8.716706
61.995 8.962788
62.000 8.60006
62.005 8.575016
62.010 8.793384
62.015 9.237336
62.020 9.498491
62.025 9.249614
62.030 9.086612
62.035 8.94891
62.040 8.706466
62.045 8.432651
62.050 7.950955
62.055 8.153255
62.060 8.339649
62.065 8.332418
62.070 8.379445
62.075 8.338573
62.080 7.962947
62.085 7.948353
62.090 7.476809
62.095 7.183851
62.100 7.108122
62.105 7.019501
62.110 6.847236
62.115 7.384751
62.120 7.555258
62.125 7.61424
62.130 7.694863
62.135 7.940734
62.140 8.270027
62.145 8.451851
62.150 8.329177
62.155 8.325069
62.160 8.485727
62.165 8.758659
62.170 8.884739
62.175 8.698266
62.180 8.857819
62.185 9.041295
62.190 9.523913
62.195 9.34108
62.200 8.88586
62.205 8.757003
62.210 8.77562
62.215 8.988191
62.220 8.815672
62.225 8.469116
62.230 8.154716
62.235 7.962193
62.240 7.836254
62.245 7.575134
62.250 7.537549
62.255 7.854043
62.260 7.959356
62.265 8.531536
62.270 8.702652
62.275 8.8148
62.280 9.004095
62.285 8.673981
62.290 8.368529
62.295 8.2024
62.300 8.12477
62.305 8.187072
62.310 8.132686
62.315 8.080347
62.320 7.914874
62.325 7.637762
62.330 7.942108
62.335 8.121842
62.340 8.105034
62.345 8.06286
62.350 8.181772
62.355 8.209525
62.360 8.572191
62.365 8.299323
62.370 8.01678
62.375 8.215326
62.380 8.308053
62.385 8.492361
62.390 8.677766
62.395 8.302885
62.400 8.548957
62.405 8.977274
62.410 8.814588
62.415 8.770928
62.420 8.963548
62.425 8.996119
62.430 8.860991
62.435 8.874394
62.440 8.513972
62.445 8.478936
62.450 8.614426
62.455 8.588789
62.460 8.847103
62.465 9.235384
62.470 8.768967
62.475 8.785173
62.480 8.65216
62.485 8.355919
62.490 8.058421
62.495 8.139548
62.500 7.975347
62.505 7.83915
62.510 7.776025
62.515 8.051203
62.520 7.952488
62.525 7.77197
62.530 7.398281
62.535 7.460931
62.540 7.677853
62.545 8.002843
62.550 7.688907
62.555 7.611328
62.560 7.557323
62.565 7.684983
62.570 8.013963
62.575 8.033441
62.580 7.761472
62.585 8.027924
62.590 8.308285
62.595 8.987499
62.600 9.456989
62.605 9.58358
62.610 9.531778
62.615 9.296596
62.620 9.018811
62.625 9.048326
62.630 8.795777
62.635 8.581495
62.640 8.329249
62.645 8.34972
62.650 8.522119
62.655 9.050743
62.660 9.422458
62.665 9.230918
62.670 9.403239
62.675 9.566274
62.680 9.768494
62.685 9.573591
62.690 9.580853
62.695 9.698047
62.700 9.597797
62.705 9.08068
62.710 8.694061
62.715 8.832
62.720 9.063519
62.725 8.725856
62.730 8.337001
62.735 8.371524
62.740 8.559764
62.745 8.693163
62.750 8.709714
62.755 8.642682
62.760 8.70094
62.765 8.796415
62.770 8.910811
62.775 8.923253
62.780 9.350474
62.785 9.546476
62.790 9.66237
62.795 9.289533
62.800 8.834712
62.805 8.68152
62.810 8.716675
62.815 8.394415
62.820 8.175624
62.825 8.423504
62.830 8.983558
62.835 9.599331
62.840 10.083879
62.845 10.07348
62.850 10.081449
62.855 10.160572
62.860 9.691869
62.865 9.829659
62.870 9.631352
62.875 9.27614
62.880 9.107448
62.885 9.024815
62.890 9.214356
62.895 9.525391
62.900 9.461775
62.905 9.65916
62.910 9.501812
62.915 9.676165
62.920 9.548697
62.925 9.508486
62.930 9.425412
62.935 9.170485
62.940 8.837261
62.945 8.844417
62.950 8.645699
62.955 8.722911
62.960 8.458273
62.965 8.256779
62.970 8.496729
62.975 8.59245
62.980 8.980008
62.985 9.135355
62.990 9.375719
62.995 9.504507
63.000 9.625247
63.005 9.048409
63.010 8.963517
63.015 8.960035
63.020 9.102543
63.025 8.611664
63.030 8.070176
63.035 7.675941
63.040 7.514227
63.045 7.120787
63.050 7.0961
63.055 7.168681
63.060 7.344873
63.065 7.952208
63.070 8.389812
63.075 9.124393
63.080 9.551956
63.085 9.323278
63.090 9.334441
63.095 9.680495
63.100 9.756474
63.105 9.874269
63.110 9.745818
63.115 9.333541
63.120 8.923393
63.125 8.532594
63.130 8.12955
63.135 7.953895
63.140 7.69325
63.145 7.38293
63.150 7.579286
63.155 8.035598
63.160 7.904405
63.165 8.167579
63.170 8.461774
63.175 8.501917
63.180 8.505767
63.185 8.498562
63.190 8.355915
63.195 8.948
63.200 8.688746
63.205 8.205029
63.210 8.399806
63.215 8.620425
63.220 8.742231
63.225 8.860358
63.230 8.972055
63.235 9.044852
63.240 9.000641
63.245 8.443958
63.250 8.13094
63.255 8.250324
63.260 8.137423
63.265 7.533067
63.270 7.625238
63.275 8.018126
63.280 8.285398
63.285 8.86146
63.290 9.178271
63.295 9.270798
63.300 9.439739
63.305 9.149445
63.310 9.04864
63.315 9.176819
63.320 8.457341
63.325 7.943582
63.330 7.628115
63.335 7.858539
63.340 8.4188
63.345 8.377254
63.350 8.19268
63.355 8.042167
63.360 7.949333
63.365 8.201667
63.370 8.055955
63.375 7.618694
63.380 7.792852
63.385 8.027362
63.390 8.012313
63.395 8.448789
63.400 8.227773
63.405 7.946822
63.410 7.699926
63.415 7.327459
63.420 7.434669
63.425 7.765813
63.430 7.826567
63.435 8.38324
63.440 8.466442
63.445 8.716537
63.450 8.68008
63.455 8.086013
63.460 7.753992
63.465 7.653108
63.470 7.645318
63.475 7.840025
63.480 7.777732
63.485 7.981202
63.490 8.12702
63.495 8.534966
63.500 8.213282
63.505 7.999221
63.510 7.61662
63.515 7.614005
63.520 7.646472
63.525 7.680854
63.530 7.674637
63.535 7.958522
63.540 7.957951
63.545 8.098057
63.550 7.789534
63.555 8.036794
63.560 8.254243
63.565 8.128521
63.570 8.042879
63.575 8.064293
63.580 8.077782
63.585 8.225782
63.590 8.024923
63.595 7.703043
63.600 7.401064
63.605 7.283165
63.610 7.21812
63.615 7.556658
63.620 7.739714
63.625 7.732515
63.630 7.782553
63.635 7.921052
63.640 8.205567
63.645 8.305159
63.650 8.106733
63.655 8.440577
63.660 8.750952
63.665 9.17117
63.670 9.321195
63.675 9.378045
63.680 9.801212
63.685 10.01827
63.690 9.510022
63.695 9.323545
63.700 9.164233
63.705 8.716876
63.710 8.105674
63.715 7.509233
63.720 7.231302
63.725 7.233841
63.730 7.364839
63.735 7.051997
63.740 7.355097
63.745 7.833135
63.750 8.258574
63.755 8.591268
63.760 8.709748
63.765 8.237819
63.770 8.505927
63.775 8.437018
63.780 8.203822
63.785 7.854054
63.790 7.612957
63.795 7.561778
63.800 7.740843
63.805 7.833518
63.810 7.962566
63.815 8.209631
63.820 8.031389
63.825 7.853838
63.830 8.593613
63.835 8.878756
63.840 9.37409
63.845 9.636724
63.850 9.386765
63.855 9.358347
63.860 9.595261
63.865 9.071933
63.870 8.760272
63.875 8.57923
63.880 8.192943
63.885 8.283623
63.890 8.862744
63.895 9.063601
63.900 9.194591
63.905 8.839323
63.910 8.131662
63.915 8.545429
63.920 8.730907
63.925 8.611501
63.930 8.324801
63.935 8.306335
63.940 8.367116
63.945 8.61953
63.950 8.646183
63.955 8.987111
63.960 8.982841
63.965 9.186293
63.970 9.577463
63.975 10.060631
63.980 9.87149
63.985 9.377254
63.990 9.055013
63.995 9.084182
64.000 8.784006
64.005 8.312941
64.010 8.338452
64.015 8.476304
64.020 8.463798
64.025 8.397894
64.030 8.250802
64.035 8.645076
64.040 8.969691
64.045 8.978269
64.050 9.133642
64.055 8.87355
64.060 8.865687
64.065 8.907287
64.070 8.785147
64.075 8.689343
64.080 8.483346
64.085 8.448173
64.090 8.639947
64.095 8.535483
64.100 8.244424
64.105 7.903923
64.110 7.933779
64.115 7.969764
64.120 7.773114
64.125 7.741569
64.130 7.755217
64.135 7.914587
64.140 7.945474
64.145 8.21453
64.150 8.144262
64.155 8.14438
64.160 8.061294
64.165 8.13877
64.170 8.161533
64.175 8.234457
64.180 7.754527
64.185 7.933849
64.190 8.346138
64.195 8.51719
64.200 8.236684
64.205 7.966877
64.210 7.724052
64.215 7.812938
64.220 7.538704
64.225 7.295218
64.230 7.165812
64.235 7.194104
64.240 7.585439
64.245 7.586335
64.250 7.529565
64.255 7.594843
64.260 7.60452
64.265 7.678955
64.270 7.621039
64.275 7.718071
64.280 7.933339
64.285 8.116829
64.290 8.460118
64.295 8.749929
64.300 8.844062
64.305 9.008568
64.310 8.490232
64.315 8.449574
64.320 8.412966
64.325 8.165039
64.330 7.917102
64.335 7.912358
64.340 8.014794
64.345 8.573545
64.350 8.850027
64.355 9.03368
64.360 9.577888
64.365 9.886601
64.370 10.139918
64.375 10.221252
64.380 10.057358
64.385 9.80531
64.390 9.839039
64.395 9.674305
64.400 10.401608
64.405 10.568491
64.410 10.628056
64.415 10.418148
64.420 10.417871
64.425 10.299763
64.430 9.858825
64.435 8.924664
64.440 8.703335
64.445 8.609558
64.450 8.916701
64.455 9.147681
64.460 9.165661
64.465 9.464042
64.470 9.25848
64.475 9.108242
64.480 8.700065
64.485 8.308104
64.490 8.107098
64.495 7.892455
64.500 7.894507
64.505 8.002555
64.510 7.727257
64.515 7.939247
64.520 8.124159
64.525 8.309904
64.530 8.39753
64.535 8.602407
64.540 8.97744
64.545 9.011372
64.550 9.096275
64.555 9.010163
64.560 8.563109
64.565 8.485239
64.570 7.998777
64.575 7.495224
64.580 7.760901
64.585 7.897398
64.590 8.269082
64.595 8.676853
64.600 8.905898
64.605 9.096041
64.610 9.542314
64.615 10.005621
64.620 10.503991
64.625 10.762727
64.630 10.873368
64.635 10.995933
64.640 11.295286
64.645 11.201764
64.650 10.948501
64.655 10.497768
64.660 10.100626
64.665 10.07733
64.670 9.907228
64.675 10.146622
64.680 10.600285
64.685 10.563067
64.690 10.453777
64.695 10.470985
64.700 10.825272
64.705 11.041418
64.710 11.110347
64.715 11.049541
64.720 11.079182
64.725 11.174527
64.730 11.521769
64.735 11.596376
64.740 11.600767
64.745 11.208525
64.750 11.40582
64.755 11.408403
64.760 11.534278
64.765 11.431134
64.770 11.267473
64.775 11.245002
64.780 11.705047
64.785 11.779104
64.790 11.874057
64.795 12.324486
64.800 12.408717
64.805 12.723549
64.810 13.027341
64.815 13.361828
64.820 13.589835
64.825 13.914626
64.830 13.415806
64.835 13.560245
64.840 13.290831
64.845 13.332535
64.850 12.918021
64.855 13.292718
64.860 13.141672
64.865 13.591559
64.870 13.745764
64.875 14.104422
64.880 14.12812
64.885 14.824192
64.890 14.8782
64.895 15.220979
64.900 15.420015
64.905 15.486071
64.910 15.669104
64.915 16.124432
64.920 16.631031
64.925 16.742456
64.930 17.050358
64.935 17.193607
64.940 17.248184
64.945 17.699112
64.950 17.328262
64.955 16.872417
64.960 16.68465
64.965 16.11293
64.970 16.135775
64.975 16.388796
64.980 16.296638
64.985 16.214731
64.990 16.358839
64.995 16.556194
65.000 17.00946
65.005 16.729687
65.010 16.512192
65.015 16.435818
65.020 16.561142
65.025 16.567154
65.030 16.522646
65.035 17.195782
65.040 17.94853
65.045 17.810593
65.050 18.04747
65.055 18.140715
65.060 17.920635
65.065 17.545521
65.070 16.14073
65.075 15.745112
65.080 16.272707
65.085 16.225912
65.090 16.229422
65.095 16.281902
65.100 16.552307
65.105 17.521988
65.110 17.143414
65.115 16.425739
65.120 16.053434
65.125 16.021042
65.130 16.415779
65.135 16.387323
65.140 15.287206
65.145 15.186813
65.150 14.96771
65.155 14.962207
65.160 14.840099
65.165 14.183279
65.170 13.963938
65.175 14.226251
65.180 14.192836
65.185 14.475433
65.190 14.490631
65.195 13.815433
65.200 13.788448
65.205 13.487952
65.210 13.331847
65.215 13.19781
65.220 13.219613
65.225 13.105122
65.230 13.331845
65.235 13.278369
65.240 13.353507
65.245 13.156994
65.250 13.024882
65.255 12.328568
65.260 12.416331
65.265 11.892667
65.270 11.495373
65.275 11.571195
65.280 11.708326
65.285 12.097226
65.290 12.264112
65.295 11.76597
65.300 12.15656
65.305 12.105813
65.310 11.849167
65.315 11.640794
65.320 11.24133
65.325 11.143564
65.330 11.071091
65.335 10.455704
65.340 10.477087
65.345 10.490943
65.350 10.413317
65.355 10.195351
65.360 10.234039
65.365 10.234271
65.370 10.14463
65.375 10.233009
65.380 10.046542
65.385 9.657001
65.390 9.600513
65.395 9.491383
65.400 9.622955
65.405 9.584067
65.410 9.370712
65.415 9.679912
65.420 9.719115
65.425 9.848209
65.430 9.652087
65.435 9.678178
65.440 9.986499
65.445 9.681757
65.450 9.621448
65.455 9.360313
65.460 9.167594
65.465 8.997876
65.470 8.782591
65.475 9.059867
65.480 9.632938
65.485 9.652562
65.490 9.747791
65.495 9.798638
65.500 10.192504
65.505 10.195186
65.510 9.557396
65.515 9.076495
65.520 9.105842
65.525 9.019447
65.530 9.085255
65.535 8.87453
65.540 8.655787
65.545 8.852472
65.550 8.720909
65.555 8.151508
65.560 7.991171
65.565 7.919172
65.570 8.052257
65.575 8.340882
65.580 8.768513
65.585 8.607148
65.590 8.936599
65.595 8.873595
65.600 8.757861
65.605 8.95803
65.610 8.736557
65.615 8.26727
65.620 8.357304
65.625 8.50034
65.630 8.699036
65.635 8.486616
65.640 8.444017
65.645 8.340061
65.650 8.49739
65.655 8.435419
65.660 8.232242
65.665 8.368629
65.670 8.533919
65.675 8.452815
65.680 8.573644
65.685 8.402755
65.690 8.459871
65.695 8.200487
65.700 7.950983
65.705 7.814818
65.710 7.568265
65.715 7.580028
65.720 7.945747
65.725 7.844994
65.730 7.990672
65.735 8.050704
65.740 8.182882
65.745 8.50842
65.750 8.077427
65.755 7.698928
65.760 8.00493
65.765 8.149761
65.770 8.432641
65.775 8.425529
65.780 8.347551
65.785 8.988523
65.790 9.571439
65.795 9.290654
65.800 8.805813
65.805 8.507949
65.810 8.285728
65.815 7.710064
65.820 7.06832
65.825 6.517492
65.830 6.707817
65.835 6.796865
65.840 6.603842
65.845 6.566429
65.850 6.909412
65.855 6.987497
65.860 7.059467
65.865 7.381566
65.870 7.741288
65.875 7.88027
65.880 8.462601
65.885 8.64385
65.890 8.88608
65.895 9.034734
65.900 8.891468
65.905 8.50962
65.910 8.503193
65.915 8.080205
65.920 8.132969
65.925 7.80451
65.930 7.998835
65.935 8.144988
65.940 8.191606
65.945 8.281478
65.950 8.475131
65.955 8.713402
65.960 9.047715
65.965 8.491543
65.970 8.494607
65.975 8.844501
65.980 8.879901
65.985 8.790858
65.990 8.521585
65.995 8.286177
66.000 8.542189
66.005 8.407768
66.010 8.522296
66.015 8.082425
66.020 7.827154
66.025 7.823709
66.030 7.971931
66.035 8.458859
66.040 8.379339
66.045 8.046679
66.050 8.440363
66.055 8.812926
66.060 8.960736
66.065 9.081493
66.070 8.837498
66.075 8.822318
66.080 8.953183
66.085 9.073849
66.090 8.865532
66.095 8.599651
66.100 8.720224
66.105 8.605154
66.110 8.664856
66.115 8.706388
66.120 8.49773
66.125 8.782852
66.130 8.672814
66.135 8.059898
66.140 7.926207
66.145 7.984271
66.150 7.641643
66.155 7.176743
66.160 6.884343
66.165 7.100908
66.170 7.499296
66.175 7.452741
66.180 7.013579
66.185 7.406287
66.190 7.754974
66.195 7.697908
66.200 7.580227
66.205 7.776844
66.210 8.13272
66.215 8.489268
66.220 8.400547
66.225 8.593743
66.230 8.827923
66.235 8.60978
66.240 8.252983
66.245 8.122775
66.250 7.697834
66.255 7.35847
66.260 7.276457
66.265 7.702461
66.270 7.63196
66.275 7.617376
66.280 7.43792
66.285 7.587717
66.290 7.90354
66.295 7.975284
66.300 7.583266
66.305 7.817191
66.310 7.908744
66.315 8.275989
66.320 8.432454
66.325 8.335209
66.330 8.091007
66.335 8.127516
66.340 8.140279
66.345 8.291809
66.350 8.548718
66.355 8.697252
66.360 8.75982
66.365 8.835387
66.370 8.654202
66.375 8.766297
66.380 8.715172
66.385 8.417694
66.390 8.711304
66.395 8.86571
66.400 9.119833
66.405 9.32588
66.410 9.605612
66.415 9.314145
66.420 9.330176
66.425 8.97739
66.430 8.912488
66.435 8.774724
66.440 8.236593
66.445 7.490792
66.450 7.643557
66.455 7.783705
66.460 7.806447
66.465 7.475883
66.470 7.859919
66.475 8.264533
66.480 8.677075
66.485 8.751703
66.490 8.610464
66.495 8.678039
66.500 9.083548
66.505 9.099046
66.510 9.284147
66.515 9.163574
66.520 8.6652
66.525 8.674146
66.530 8.7622
66.535 8.690383
66.540 8.742907
66.545 8.278163
66.550 8.248263
66.555 8.49052
66.560 8.523787
66.565 8.454422
66.570 8.050943
66.575 7.66173
66.580 7.528903
66.585 7.662883
66.590 7.613862
66.595 7.610075
66.600 7.429336
66.605 7.359041
66.610 7.376358
66.615 7.466623
66.620 7.829374
66.625 7.956444
66.630 7.743971
66.635 7.77002
66.640 8.087068
66.645 8.121544
66.650 8.050546
66.655 7.674861
66.660 7.397437
66.665 7.553947
66.670 7.549396
66.675 7.373587
66.680 7.453188
66.685 7.389812
66.690 7.520509
66.695 7.897845
66.700 7.645681
66.705 7.508794
66.710 7.611228
66.715 7.702995
66.720 7.934066
66.725 8.183764
66.730 8.057242
66.735 8.362778
66.740 8.448838
66.745 8.56508
66.750 8.632627
66.755 8.84801
66.760 9.115494
66.765 9.054381
66.770 8.978895
66.775 9.118756
66.780 9.189659
66.785 8.986548
66.790 8.594556
66.795 8.316451
66.800 8.045616
66.805 8.122876
66.810 7.724406
66.815 7.55107
66.820 7.484231
66.825 7.236807
66.830 7.040939
66.835 7.381199
66.840 7.295109
66.845 7.359523
66.850 7.098947
66.855 7.099226
66.860 7.240255
66.865 7.446094
66.870 7.437171
66.875 7.437476
66.880 7.447521
66.885 7.296613
66.890 7.676141
66.895 7.791911
66.900 7.606385
66.905 7.36517
66.910 7.34453
66.915 7.739795
66.920 8.165973
66.925 7.974267
66.930 7.843801
66.935 7.96682
66.940 8.415488
66.945 8.653844
66.950 8.480047
66.955 7.967117
66.960 8.037536
66.965 8.146689
66.970 7.775747
66.975 7.439432
66.980 6.964169
66.985 7.045315
66.990 7.262225
66.995 7.385083
67.000 7.722786
67.005 8.020801
67.010 8.079806
67.015 8.241364
67.020 8.352841
67.025 8.263976
67.030 7.78061
67.035 7.776986
67.040 8.212125
67.045 8.369849
67.050 8.262022
67.055 8.48676
67.060 8.621469
67.065 8.767653
67.070 8.527454
67.075 7.914922
67.080 7.903529
67.085 7.822645
67.090 7.505633
67.095 7.509964
67.100 7.528582
67.105 7.518422
67.110 8.142657
67.115 8.483668
67.120 8.566431
67.125 8.530765
67.130 8.599607
67.135 8.865585
67.140 8.998944
67.145 8.470759
67.150 8.216078
67.155 8.398159
67.160 8.905144
67.165 9.151297
67.170 9.078186
67.175 9.31613
67.180 10.003709
67.185 10.141256
67.190 10.013561
67.195 9.703484
67.200 9.528452
67.205 9.74676
67.210 9.386477
67.215 8.900607
67.220 9.136784
67.225 9.202862
67.230 9.014798
67.235 8.721252
67.240 8.387949
67.245 7.949228
67.250 8.030597
67.255 8.109941
67.260 8.114308
67.265 8.259493
67.270 7.956973
67.275 8.266685
67.280 8.989091
67.285 9.122118
67.290 9.042468
67.295 8.604666
67.300 8.323052
67.305 8.529078
67.310 8.527125
67.315 8.538227
67.320 7.880448
67.325 7.64096
67.330 7.753324
67.335 7.851463
67.340 8.00647
67.345 8.148383
67.350 8.078296
67.355 8.353712
67.360 8.549091
67.365 8.955371
67.370 9.204153
67.375 8.85856
67.380 8.247794
67.385 7.669695
67.390 7.502983
67.395 7.49977
67.400 7.109962
67.405 6.822237
67.410 6.84404
67.415 6.985689
67.420 6.825062
67.425 6.811146
67.430 6.548833
67.435 6.639272
67.440 6.779804
67.445 7.058022
67.450 7.162702
67.455 7.355922
67.460 7.472656
67.465 7.882098
67.470 8.003847
67.475 7.924684
67.480 7.605013
67.485 7.961471
67.490 8.014202
67.495 8.027154
67.500 7.992092
67.505 7.83232
67.510 7.988635
67.515 7.891074
67.520 7.688561
67.525 7.648762
67.530 7.733723
67.535 8.127909
67.540 8.410197
67.545 8.562848
67.550 8.726997
67.555 9.053265
67.560 9.267165
67.565 8.861872
67.570 8.689741
67.575 8.669298
67.580 8.518751
67.585 8.374922
67.590 7.978192
67.595 7.890684
67.600 8.07579
67.605 7.845623
67.610 7.980149
67.615 8.256327
67.620 8.417698
67.625 8.428294
67.630 8.723892
67.635 8.70272
67.640 8.508896
67.645 8.465034
67.650 8.208345
67.655 7.979692
67.660 8.084471
67.665 7.935125
67.670 8.230866
67.675 8.360218
67.680 7.907209
67.685 8.2413
67.690 8.674311
67.695 8.696012
67.700 8.655862
67.705 8.546324
67.710 8.943622
67.715 8.95365
67.720 8.58985
67.725 8.646404
67.730 8.878089
67.735 8.726927
67.740 8.468734
67.745 8.450887
67.750 8.766273
67.755 8.73363
67.760 8.513455
67.765 8.947398
67.770 8.952523
67.775 9.464917
67.780 9.456158
67.785 9.160819
67.790 9.506158
67.795 9.311698
67.800 9.032735
67.805 8.876265
67.810 8.387509
67.815 8.471733
67.820 8.620619
67.825 8.505145
67.830 8.10656
67.835 7.659684
67.840 7.753861
67.845 7.855992
67.850 7.751654
67.855 8.075541
67.860 8.291618
67.865 8.886984
67.870 9.582265
67.875 10.043305
67.880 9.969897
67.885 9.462562
67.890 9.345579
67.895 9.164446
67.900 8.929831
67.905 8.886231
67.910 8.877215
67.915 9.108199
67.920 9.31942
67.925 8.855754
67.930 9.084725
67.935 9.032907
67.940 8.807032
67.945 8.421754
67.950 8.416136
67.955 8.615521
67.960 8.71955
67.965 8.209876
67.970 8.163007
67.975 8.192765
67.980 8.450705
67.985 8.678691
67.990 8.854661
67.995 9.023464
68.000 9.686739
68.005 10.129258
68.010 9.992764
68.015 9.882836
68.020 9.286286
68.025 9.147701
68.030 9.151579
68.035 8.763635
68.040 8.2877
68.045 8.486918
68.050 8.738003
68.055 8.906246
68.060 8.793382
68.065 9.002159
68.070 9.035195
68.075 9.151275
68.080 9.175353
68.085 9.542803
68.090 9.793226
68.095 9.575881
68.100 9.041237
68.105 9.015681
68.110 8.901429
68.115 8.645219
68.120 8.22879
68.125 7.891015
68.130 8.159875
68.135 8.280175
68.140 8.3992
68.145 8.161904
68.150 8.053536
68.155 7.957972
68.160 7.966106
68.165 7.989558
68.170 8.167249
68.175 8.088319
68.180 8.035031
68.185 8.303893
68.190 8.575699
68.195 8.597791
68.200 8.009642
68.205 7.445383
68.210 7.266609
68.215 7.358497
68.220 7.209799
68.225 7.307437
68.230 7.537148
68.235 7.937551
68.240 8.467968
68.245 8.935477
68.250 8.896239
68.255 8.363221
68.260 8.368494
68.265 8.386014
68.270 8.172566
68.275 8.342722
68.280 8.20374
68.285 8.034838
68.290 8.446706
68.295 8.009607
68.300 8.173273
68.305 8.093274
68.310 7.956103
68.315 7.882567
68.320 7.879059
68.325 7.9576
68.330 7.77729
68.335 7.340224
68.340 7.458651
68.345 7.722083
68.350 7.614606
68.355 7.62599
68.360 7.475769
68.365 7.696051
68.370 7.885353
68.375 7.433082
68.380 7.047057
68.385 7.090851
68.390 7.273539
68.395 7.555379
68.400 7.759405
68.405 7.914802
68.410 7.991478
68.415 7.877364
68.420 8.062616
68.425 7.978471
68.430 7.85096
68.435 7.505029
68.440 7.352014
68.445 7.60578
68.450 7.673348
68.455 7.574662
68.460 7.374639
68.465 7.24368
68.470 7.301434
68.475 7.45689
68.480 7.354229
68.485 7.595697
68.490 7.532267
68.495 7.477107
68.500 7.274472
68.505 7.415674
68.510 7.575924
68.515 7.427284
68.520 6.976338
68.525 6.993003
68.530 7.008927
68.535 7.371609
68.540 7.397911
68.545 7.539564
68.550 7.815492
68.555 8.299101
68.560 8.444283
68.565 8.921499
68.570 8.95107
68.575 8.963354
68.580 9.043352
68.585 8.957314
68.590 8.825231
68.595 8.623583
68.600 8.69134
68.605 8.818112
68.610 8.98636
68.615 8.946291
68.620 9.059388
68.625 9.194198
68.630 9.149994
68.635 8.93039
68.640 8.833168
68.645 8.793425
68.650 8.792711
68.655 8.857677
68.660 9.203576
68.665 9.638663
68.670 9.83099
68.675 9.45485
68.680 9.163025
68.685 9.144424
68.690 9.248138
68.695 9.295421
68.700 8.988667
68.705 8.45708
68.710 8.492904
68.715 8.386958
68.720 8.001892
68.725 7.409903
68.730 6.983283
68.735 6.659656
68.740 6.978218
68.745 7.03127
68.750 7.189549
68.755 7.564418
68.760 8.015444
68.765 8.392098
68.770 8.703608
68.775 8.862726
68.780 9.049366
68.785 9.154267
68.790 9.160218
68.795 8.731511
68.800 8.991407
68.805 8.827858
68.810 8.795797
68.815 8.810602
68.820 8.68415
68.825 8.777693
68.830 8.88894
68.835 8.911782
68.840 9.093901
68.845 9.162663
68.850 9.439357
68.855 9.403677
68.860 9.344476
68.865 9.13179
68.870 8.728255
68.875 9.317828
68.880 9.295222
68.885 8.684047
68.890 8.919973
68.895 9.203051
68.900 9.645331
68.905 9.871193
68.910 9.674061
68.915 9.652431
68.920 9.750226
68.925 9.779081
68.930 9.488253
68.935 9.278067
68.940 8.844614
68.945 8.214129
68.950 8.463428
68.955 8.441579
68.960 7.718193
68.965 7.725366
68.970 8.044615
68.975 8.716616
68.980 9.0373
68.985 8.822128
68.990 9.062912
68.995 9.8806
69.000 9.787623
69.005 9.677831
69.010 9.424326
69.015 9.575736
69.020 9.82506
69.025 9.475971
69.030 9.040686
69.035 8.72867
69.040 8.913383
69.045 9.104934
69.050 8.791173
69.055 8.467328
69.060 8.697179
69.065 8.895249
69.070 9.195008
69.075 9.052905
69.080 9.351192
69.085 9.7487
69.090 10.378116
69.095 10.218304
69.100 10.350194
69.105 10.211256
69.110 9.893962
69.115 9.757557
69.120 9.832399
69.125 9.82308
69.130 9.861609
69.135 9.771734
69.140 9.89744
69.145 9.511449
69.150 8.998608
69.155 8.184207
69.160 8.06607
69.165 8.018801
69.170 7.719532
69.175 7.742853
69.180 8.07164
69.185 8.42639
69.190 8.636146
69.195 8.697068
69.200 8.447759
69.205 8.273286
69.210 8.065492
69.215 8.027168
69.220 8.203486
69.225 8.469893
69.230 8.680381
69.235 8.813437
69.240 8.901116
69.245 8.941593
69.250 8.974137
69.255 8.435228
69.260 7.868145
69.265 7.712954
69.270 7.998901
69.275 8.094767
69.280 7.935725
69.285 7.961642
69.290 8.297302
69.295 8.216421
69.300 8.368125
69.305 8.438687
69.310 8.473106
69.315 8.281061
69.320 8.045501
69.325 8.097304
69.330 8.544689
69.335 8.316468
69.340 8.015077
69.345 8.267816
69.350 8.578829
69.355 8.795279
69.360 8.72385
69.365 7.977425
69.370 7.945785
69.375 8.218487
69.380 8.100213
69.385 7.692482
69.390 7.378458
69.395 7.338151
69.400 7.364879
69.405 7.422488
69.410 7.054514
69.415 6.948824
69.420 7.245128
69.425 7.612518
69.430 7.930977
69.435 8.100402
69.440 8.153589
69.445 8.446443
69.450 8.783579
69.455 8.795748
69.460 8.798927
69.465 8.939625
69.470 8.893574
69.475 8.975007
69.480 8.630722
69.485 8.516354
69.490 8.225986
69.495 7.955548
69.500 7.803473
69.505 7.794266
69.510 7.733909
69.515 8.40334
69.520 8.570488
69.525 8.78448
69.530 8.990362
69.535 9.510874
69.540 9.863709
69.545 9.739361
69.550 9.214051
69.555 8.897596
69.560 8.50563
69.565 8.210725
69.570 7.934953
69.575 7.772505
69.580 7.76995
69.585 8.127237
69.590 8.481295
69.595 8.66946
69.600 8.403435
69.605 8.016957
69.610 7.981238
69.615 7.944705
69.620 7.645722
69.625 7.380943
69.630 7.629946
69.635 7.969663
69.640 8.050963
69.645 8.092401
69.650 7.979346
69.655 7.83937
69.660 8.201591
69.665 8.303775
69.670 8.090877
69.675 7.798137
69.680 7.831146
69.685 8.196513
69.690 8.408189
69.695 8.134642
69.700 8.42993
69.705 8.626353
69.710 8.771794
69.715 9.178852
69.720 8.821733
69.725 9.136765
69.730 9.286621
69.735 9.225367
69.740 9.122791
69.745 9.085581
69.750 8.663419
69.755 8.82768
69.760 8.454915
69.765 8.250422
69.770 7.97602
69.775 8.019844
69.780 8.113632
69.785 8.150124
69.790 7.91578
69.795 8.007036
69.800 7.964843
69.805 8.160683
69.810 8.1367
69.815 8.226785
69.820 8.037724
69.825 7.724501
69.830 7.670529
69.835 7.995643
69.840 8.156291
69.845 7.962797
69.850 7.773227
69.855 7.540783
69.860 7.773364
69.865 7.611844
69.870 7.477038
69.875 7.634305
69.880 8.129354
69.885 8.26007
69.890 8.776643
69.895 8.741078
69.900 8.877245
69.905 8.688399
69.910 8.244699
69.915 7.722776
69.920 7.593602
69.925 7.186599
69.930 7.039884
69.935 7.032895
69.940 7.282421
69.945 7.517923
69.950 7.574389
69.955 7.947643
69.960 8.170939
69.965 8.281694
69.970 8.152263
69.975 7.823113
69.980 7.569799
69.985 7.383849
69.990 7.114934
69.995 6.977147
70.000 6.726359
70.005 6.648832
70.010 6.61303
70.015 6.661573
70.020 6.805405
70.025 6.808701
70.030 7.033832
70.035 7.89081
70.040 8.072329
70.045 8.292707
70.050 8.294353
70.055 8.287761
70.060 8.128654
70.065 8.227509
70.070 7.711022
70.075 7.732942
70.080 7.955792
70.085 8.342983
70.090 8.33405
70.095 8.636277
70.100 8.266904
70.105 8.190281
70.110 7.918839
70.115 7.949268
70.120 7.763178
70.125 8.012812
70.130 8.138618
70.135 8.568236
70.140 9.028316
70.145 9.011796
70.150 8.769647
70.155 8.718419
70.160 8.368434
70.165 7.90727
70.170 7.668115
70.175 7.609227
70.180 7.417154
70.185 7.81082
70.190 8.075764
70.195 8.533625
70.200 8.729879
70.205 8.594318
70.210 8.606005
70.215 9.113742
70.220 8.627346
70.225 8.401804
70.230 7.971248
70.235 8.241235
70.240 8.4071
70.245 8.130865
70.250 8.16368
70.255 8.754551
70.260 9.161944
70.265 9.605893
70.270 9.360827
70.275 9.023249
70.280 9.294252
70.285 9.095775
70.290 8.524332
70.295 7.991358
70.300 7.527977
70.305 7.91535
70.310 8.477942
70.315 8.559391
70.320 8.793361
70.325 9.162334
70.330 9.500182
70.335 9.551313
70.340 9.477695
70.345 9.28106
70.350 9.270073
70.355 8.719151
70.360 8.963317
70.365 8.887388
70.370 9.077964
70.375 8.73156
70.380 8.942998
70.385 9.000211
70.390 9.212535
70.395 9.014531
70.400 9.07295
70.405 8.849463
70.410 8.555871
70.415 8.270928
70.420 8.181317
70.425 8.348833
70.430 8.137523
70.435 8.082296
70.440 8.653559
70.445 8.889613
70.450 8.950613
70.455 8.812848
70.460 8.514703
70.465 9.150521
70.470 8.948161
70.475 8.451568
70.480 8.772696
70.485 8.573161
70.490 8.536833
70.495 8.433309
70.500 8.234275
70.505 8.785702
70.510 8.34658
70.515 8.232992
70.520 8.588333
70.525 8.728865
70.530 8.829198
70.535 8.626466
70.540 8.899671
70.545 9.298562
70.550 9.186237
70.555 9.299502
70.560 9.676041
70.565 9.655833
70.570 9.441465
70.575 9.117354
70.580 9.527271
70.585 9.221863
70.590 8.921706
70.595 8.50589
70.600 8.467829
70.605 8.414698
70.610 8.329856
70.615 7.935433
70.620 8.222357
70.625 8.001402
70.630 8.095579
70.635 8.402317
70.640 8.529349
70.645 8.579044
70.650 8.830546
70.655 8.920654
70.660 9.058963
70.665 8.773444
70.670 8.234038
70.675 8.246958
70.680 7.971957
70.685 7.569194
70.690 7.170458
70.695 7.355355
70.700 7.546532
70.705 8.1204
70.710 8.129659
70.715 8.278459
70.720 8.26152
70.725 8.25901
70.730 8.432683
70.735 8.283676
70.740 8.075766
70.745 8.083276
70.750 7.906756
70.755 7.842788
70.760 7.700164
70.765 7.479695
70.770 7.725719
70.775 7.64665
70.780 7.437253
70.785 7.869811
70.790 8.076111
70.795 8.410608
70.800 8.291335
70.805 8.19745
70.810 8.25771
70.815 8.584692
70.820 8.610428
70.825 8.539632
70.830 8.466281
70.835 8.51131
70.840 8.579567
70.845 8.54731
70.850 8.519357
70.855 8.436571
70.860 8.449199
70.865 8.578019
70.870 8.705861
70.875 8.805201
70.880 8.39319
70.885 8.154913
70.890 8.161542
70.895 8.139324
70.900 7.986292
70.905 7.118425
70.910 6.771791
70.915 7.148715
70.920 6.89652
70.925 7.11977
70.930 7.309577
70.935 7.58059
70.940 7.796854
70.945 7.875638
70.950 7.96655
70.955 8.093832
70.960 7.35796
70.965 7.198684
70.970 7.252355
70.975 7.528761
70.980 7.933043
70.985 8.24204
70.990 8.796201
70.995 8.856379
71.000 8.705125
71.005 8.656357
71.010 8.457626
71.015 8.06588
71.020 7.634041
71.025 6.941353
71.030 7.171376
71.035 7.54765
71.040 7.750648
71.045 7.883739
71.050 7.872602
71.055 8.029019
71.060 8.598542
71.065 8.249295
71.070 8.079406
71.075 8.178426
71.080 8.432006
71.085 8.588931
71.090 8.43322
71.095 8.483216
71.100 8.197974
71.105 8.232205
71.110 8.205447
71.115 8.087909
71.120 8.040263
71.125 8.213305
71.130 8.53356
71.135 8.454451
71.140 8.250178
71.145 7.904156
71.150 7.849605
71.155 7.703882
71.160 7.283444
71.165 7.160098
71.170 7.171082
71.175 7.249188
71.180 7.251497
71.185 7.239497
71.190 7.545027
71.195 7.612795
71.200 7.648078
71.205 7.562891
71.210 7.906307
71.215 7.735945
71.220 7.67669
71.225 7.523494
71.230 7.528061
71.235 7.783442
71.240 7.879179
71.245 7.748293
71.250 8.309228
71.255 8.510096
71.260 8.512915
71.265 8.47487
71.270 8.453902
71.275 8.597349
71.280 8.285645
71.285 8.097511
71.290 8.173109
71.295 8.375977
71.300 8.510333
71.305 8.326497
71.310 7.833568
71.315 7.88556
71.320 7.44327
71.325 7.160028
71.330 7.124181
71.335 7.239507
71.340 7.449712
71.345 7.8165
71.350 8.141077
71.355 8.446045
71.360 8.271835
71.365 7.972647
71.370 7.666798
71.375 7.869183
71.380 7.571089
71.385 7.434024
71.390 7.561016
71.395 7.690235
71.400 8.107738
71.405 8.071507
71.410 7.975096
71.415 8.036593
71.420 8.243489
71.425 7.933749
71.430 8.101707
71.435 7.452777
71.440 7.409157
71.445 7.482993
71.450 7.516998
71.455 7.339353
71.460 7.297024
71.465 7.314592
71.470 8.199856
71.475 8.433688
71.480 8.939329
71.485 9.167382
71.490 9.751622
71.495 9.972098
71.500 10.323036
71.505 10.107349
71.510 10.173043
71.515 9.544148
71.520 9.140977
71.525 8.570877
71.530 8.473075
71.535 8.198901
71.540 8.296167
71.545 8.043341
71.550 8.463181
71.555 8.477942
71.560 8.613027
71.565 8.757256
71.570 8.505394
71.575 8.035879
71.580 8.004701
71.585 7.88975
71.590 8.261158
71.595 7.891279
71.600 7.349567
71.605 7.293038
71.610 7.039046
71.615 6.842837
71.620 7.106922
71.625 7.346556
71.630 7.691426
71.635 7.697828
71.640 7.71073
71.645 7.856732
71.650 7.807104
71.655 7.069164
71.660 6.919578
71.665 6.627708
71.670 6.778517
71.675 7.39558
71.680 7.694714
71.685 7.93721
71.690 8.01981
71.695 8.514059
71.700 8.912583
71.705 9.022173
71.710 8.753402
71.715 8.286545
71.720 7.826225
71.725 7.721978
71.730 7.179562
71.735 6.963616
71.740 6.96303
71.745 7.225153
71.750 7.829443
71.755 8.247342
71.760 8.40169
71.765 8.367613
71.770 8.292606
71.775 8.21517
71.780 8.233784
71.785 8.506701
71.790 8.777311
71.795 8.842579
71.800 9.155837
71.805 8.915964
71.810 9.055821
71.815 8.994473
71.820 8.430861
71.825 8.174552
71.830 8.03827
71.835 8.146935
71.840 8.747617
71.845 8.423636
71.850 8.261841
71.855 8.387923
71.860 8.632514
71.865 8.934357
71.870 8.834496
71.875 8.482231
71.880 8.492034
71.885 9.005187
71.890 8.611796
71.895 8.553551
71.900 8.522294
71.905 8.302939
71.910 8.493234
71.915 7.814845
71.920 7.309647
71.925 7.483046
71.930 7.477868
71.935 7.681452
71.940 7.735864
71.945 7.801795
71.950 8.438698
71.955 9.166026
71.960 9.187794
71.965 8.838809
71.970 8.859988
71.975 8.820436
71.980 8.965401
71.985 8.721923
71.990 8.488267
71.995 8.305094
72.000 8.13706
72.005 8.021334
72.010 8.278501
72.015 8.763908
72.020 8.26095
72.025 7.932889
72.030 7.920373
72.035 8.227755
72.040 8.127837
72.045 7.752612
72.050 7.474156
72.055 7.946024
72.060 8.288114
72.065 8.445703
72.070 8.252716
72.075 8.422051
72.080 8.831702
72.085 9.090073
72.090 9.04287
72.095 8.979415
72.100 8.828799
72.105 8.516634
72.110 8.519339
72.115 8.409584
72.120 8.008733
72.125 7.663851
72.130 7.466199
72.135 7.757272
72.140 8.005931
72.145 7.975368
72.150 8.031282
72.155 8.045849
72.160 8.365181
72.165 8.677176
72.170 9.150402
72.175 9.101262
72.180 8.862885
72.185 8.738548
72.190 8.8808
72.195 8.893845
72.200 8.446603
72.205 8.061435
72.210 7.977928
72.215 8.069836
72.220 8.305635
72.225 8.547948
72.230 8.646976
72.235 8.953238
72.240 9.081835
72.245 9.141973
72.250 9.299011
72.255 8.930426
72.260 8.583787
72.265 8.595506
72.270 8.231843
72.275 7.905911
72.280 7.986812
72.285 7.767939
72.290 7.863711
72.295 7.498279
72.300 7.207873
72.305 7.557398
72.310 7.450916
72.315 7.329726
72.320 7.69841
72.325 8.140569
72.330 8.593936
72.335 8.644258
72.340 8.783281
72.345 9.091896
72.350 9.276392
72.355 9.226285
72.360 8.781174
72.365 8.507932
72.370 7.961576
72.375 7.496987
72.380 7.316098
72.385 7.204235
72.390 7.364447
72.395 7.5233
72.400 7.873755
72.405 8.342469
72.410 8.59433
72.415 8.602302
72.420 8.238605
72.425 7.928725
72.430 7.870951
72.435 7.871777
72.440 7.575348
72.445 7.359582
72.450 7.013762
72.455 6.87939
72.460 6.948134
72.465 6.946499
72.470 7.107117
72.475 7.267142
72.480 7.658198
72.485 8.320171
72.490 8.459311
72.495 8.716828
72.500 8.88182
72.505 9.177913
72.510 9.285353
72.515 9.189405
72.520 8.795129
72.525 9.18964
72.530 9.154674
72.535 8.95106
72.540 8.964587
72.545 8.72907
72.550 9.013608
72.555 9.332293
72.560 9.197812
72.565 9.009675
72.570 8.9015
72.575 8.774869
72.580 8.981331
72.585 8.8339
72.590 8.421565
72.595 8.391185
72.600 8.247031
72.605 7.831026
72.610 7.850383
72.615 7.37948
72.620 7.440485
72.625 7.536865
72.630 7.301562
72.635 7.374878
72.640 7.578305
72.645 7.589023
72.650 7.757739
72.655 7.625279
72.660 7.490817
72.665 7.630988
72.670 7.929602
72.675 8.142682
72.680 8.142098
72.685 8.028086
72.690 8.501834
72.695 8.798389
72.700 8.87271
72.705 8.358147
72.710 8.220779
72.715 8.134706
72.720 8.316277
72.725 8.152895
72.730 8.063367
72.735 7.992172
72.740 7.91329
72.745 7.996087
72.750 8.086947
72.755 7.564543
72.760 7.612197
72.765 7.802843
72.770 7.839821
72.775 7.987055
72.780 7.770855
72.785 7.692143
72.790 7.923624
72.795 7.725715
72.800 7.609824
72.805 7.589396
72.810 7.546112
72.815 7.496218
72.820 7.543087
72.825 7.340274
72.830 7.374978
72.835 7.664293
72.840 8.08513
72.845 8.208683
72.850 8.579866
72.855 9.03694
72.860 9.343983
72.865 9.205202
72.870 8.870631
72.875 8.338697
72.880 8.293851
72.885 8.105842
72.890 7.968822
72.895 8.078051
72.900 8.119709
72.905 8.195299
72.910 8.221159
72.915 8.138792
72.920 8.385064
72.925 8.104058
72.930 7.739807
72.935 7.817627
72.940 7.763738
72.945 7.813767
72.950 7.438615
72.955 7.004875
72.960 6.892142
72.965 7.00042
72.970 6.692096
72.975 6.691808
72.980 6.98382
72.985 7.134539
72.990 7.387081
72.995 7.42957
73.000 7.436618
