!@!!GADDS PLOTSO FILE: Chi integration type
!@!!Title/SampleName: map-12c
!@!!Comment: ?
!@!!User: Bruker Instrument Administrator
!@!!Site: University of Illinois Chicago
!@!!Frame: map-12c_01_000.gfrm
!@!!Wavelengths    1.54184   1.54056   1.54439
!@!!Frame angles: 2Theta: 63.000 Omega: 50.000 Phi: 0.000 Chi: 90.000
!@!!Integration range: 2Theta: 53.000 to 73.000  Gamma: -105.000 to -75.000
!@!!Integration method: bin normalized
!@!N
!@!SS
!@!M
!@!L 0.0 0.0 0.0 0.0
!@!XDegrees
!@!YCounts
53.000 4.198079
53.005 3.925256
53.010 4.069329
53.015 4.190399
53.020 4.114683
53.025 4.109995
53.030 3.845253
53.035 3.731248
53.040 3.623806
53.045 3.258168
53.050 3.358176
53.055 3.363301
53.060 3.438255
53.065 3.592184
53.070 3.783453
53.075 3.866871
53.080 4.073008
53.085 4.113867
53.090 4.491106
53.095 4.659658
53.100 4.513664
53.105 4.413562
53.110 4.236753
53.115 3.818058
53.120 3.656663
53.125 3.347043
53.130 2.927839
53.135 2.773561
53.140 2.837322
53.145 3.083852
53.150 3.226233
53.155 3.337713
53.160 3.480926
53.165 3.869547
53.170 4.272737
53.175 4.188294
53.180 4.050631
53.185 4.30384
53.190 4.160476
53.195 3.961777
53.200 3.508716
53.205 3.590671
53.210 3.703635
53.215 3.801531
53.220 3.801204
53.225 3.818048
53.230 3.943096
53.235 4.132637
53.240 4.105273
53.245 4.478826
53.250 4.526175
53.255 4.244907
53.260 4.198153
53.265 4.311381
53.270 4.335864
53.275 4.298637
53.280 4.067811
53.285 3.652972
53.290 3.843098
53.295 3.809032
53.300 3.692724
53.305 3.675466
53.310 3.303182
53.315 3.392134
53.320 3.610453
53.325 3.41564
53.330 3.416581
53.335 3.062453
53.340 2.950945
53.345 3.07771
53.350 3.00556
53.355 3.156663
53.360 3.21478
53.365 3.440626
53.370 3.743825
53.375 3.926572
53.380 3.950891
53.385 3.87871
53.390 4.038874
53.395 3.934081
53.400 3.644342
53.405 3.518178
53.410 3.477099
53.415 3.616786
53.420 3.471183
53.425 3.320704
53.430 3.103026
53.435 3.362419
53.440 3.198083
53.445 3.103992
53.450 2.849821
53.455 2.705559
53.460 2.730508
53.465 3.139137
53.470 3.006183
53.475 2.935393
53.480 2.951613
53.485 3.200469
53.490 3.415788
53.495 3.486447
53.500 3.453231
53.505 3.628286
53.510 3.670788
53.515 3.623348
53.520 3.368995
53.525 3.130155
53.530 2.83469
53.535 2.646011
53.540 2.607115
53.545 2.610764
53.550 2.573173
53.555 2.956137
53.560 3.339218
53.565 3.575773
53.570 3.454536
53.575 3.647356
53.580 3.798681
53.585 4.009079
53.590 3.758157
53.595 3.656545
53.600 3.648016
53.605 3.7206
53.610 3.911095
53.615 3.796159
53.620 3.660175
53.625 3.611238
53.630 3.447538
53.635 3.405304
53.640 3.305569
53.645 3.183895
53.650 3.334846
53.655 3.444554
53.660 3.588711
53.665 3.621596
53.670 3.627275
53.675 3.965627
53.680 3.833045
53.685 3.807616
53.690 3.692773
53.695 3.680919
53.700 3.712309
53.705 3.434862
53.710 3.15872
53.715 3.279721
53.720 3.32573
53.725 3.661282
53.730 3.571734
53.735 3.466785
53.740 3.743518
53.745 3.9469
53.750 3.993124
53.755 3.904006
53.760 3.719578
53.765 3.977201
53.770 4.037612
53.775 4.14006
53.780 4.2883
53.785 4.193031
53.790 3.931625
53.795 3.871376
53.800 3.926017
53.805 3.805926
53.810 3.39747
53.815 3.443281
53.820 3.585958
53.825 3.873634
53.830 3.851717
53.835 3.985768
53.840 3.915247
53.845 3.76877
53.850 3.53472
53.855 3.50542
53.860 3.298862
53.865 3.175338
53.870 2.964289
53.875 3.09205
53.880 2.975007
53.885 2.860348
53.890 3.175207
53.895 3.555529
53.900 3.786623
53.905 3.902012
53.910 4.005767
53.915 4.024903
53.920 4.045489
53.925 3.753206
53.930 3.661617
53.935 3.483884
53.940 3.579532
53.945 3.693687
53.950 3.761794
53.955 3.927345
53.960 3.78354
53.965 3.871364
53.970 3.997947
53.975 3.855573
53.980 3.737977
53.985 3.549993
53.990 3.374916
53.995 3.362164
54.000 3.508106
54.005 3.608436
54.010 3.789915
54.015 3.697851
54.020 3.66826
54.025 3.795128
54.030 3.679309
54.035 3.286777
54.040 2.950565
54.045 2.897384
54.050 3.059979
54.055 3.161539
54.060 3.067963
54.065 3.255891
54.070 3.192479
54.075 3.197624
54.080 3.12669
54.085 3.052579
54.090 3.004035
54.095 3.161768
54.100 3.03626
54.105 3.218703
54.110 3.18357
54.115 3.355569
54.120 3.583941
54.125 3.663583
54.130 3.471693
54.135 3.519321
54.140 3.698049
54.145 3.680918
54.150 3.21394
54.155 3.033969
54.160 3.088844
54.165 3.333388
54.170 3.538876
54.175 3.345024
54.180 3.542989
54.185 3.61081
54.190 3.715007
54.195 3.869843
54.200 4.167217
54.205 4.351687
54.210 4.60645
54.215 4.616012
54.220 4.554674
54.225 4.494516
54.230 4.044156
54.235 3.75122
54.240 3.465587
54.245 3.38212
54.250 3.218462
54.255 3.058148
54.260 3.06745
54.265 2.968456
54.270 2.917037
54.275 2.778764
54.280 2.703523
54.285 2.950379
54.290 3.195328
54.295 3.007557
54.300 2.761947
54.305 2.630303
54.310 2.75388
54.315 2.892754
54.320 2.946836
54.325 2.8218
54.330 3.151928
54.335 3.071198
54.340 2.891522
54.345 2.935139
54.350 3.123171
54.355 3.051004
54.360 3.040217
54.365 2.983656
54.370 3.278612
54.375 3.728552
54.380 3.77643
54.385 3.807457
54.390 3.833638
54.395 3.763767
54.400 3.679948
54.405 3.557415
54.410 3.302135
54.415 3.239221
54.420 3.064412
54.425 2.991396
54.430 3.37306
54.435 3.773634
54.440 3.886976
54.445 3.996859
54.450 4.094198
54.455 4.246514
54.460 4.335093
54.465 4.185898
54.470 3.952567
54.475 3.859947
54.480 3.629209
54.485 3.429911
54.490 3.618016
54.495 3.697471
54.500 3.691639
54.505 3.758719
54.510 3.721289
54.515 3.970647
54.520 4.039353
54.525 3.68415
54.530 3.646964
54.535 3.593821
54.540 3.55838
54.545 3.653521
54.550 3.520172
54.555 3.54021
54.560 3.592604
54.565 3.460913
54.570 3.355164
54.575 3.344168
54.580 3.408624
54.585 3.589381
54.590 3.597482
54.595 3.505178
54.600 3.618271
54.605 3.886168
54.610 3.890582
54.615 3.979518
54.620 3.993247
54.625 4.084054
54.630 4.202544
54.635 4.010528
54.640 4.109579
54.645 4.048843
54.650 3.820482
54.655 3.416939
54.660 3.302338
54.665 3.220204
54.670 3.185265
54.675 3.143176
54.680 3.492852
54.685 3.460483
54.690 3.767399
54.695 3.791838
54.700 3.760982
54.705 3.907112
54.710 3.707466
54.715 3.456771
54.720 3.481829
54.725 3.389375
54.730 3.56525
54.735 3.848727
54.740 3.61723
54.745 3.281901
54.750 2.912508
54.755 2.618077
54.760 2.539169
54.765 2.654404
54.770 2.666437
54.775 3.056333
54.780 3.385807
54.785 3.745682
54.790 4.048388
54.795 4.143691
54.800 3.826981
54.805 3.514856
54.810 3.197899
54.815 2.995556
54.820 2.916247
54.825 3.040614
54.830 2.91688
54.835 2.928622
54.840 3.175153
54.845 3.452472
54.850 3.715073
54.855 3.865804
54.860 3.746845
54.865 3.675061
54.870 3.662186
54.875 3.631114
54.880 3.410678
54.885 3.283182
54.890 3.329297
54.895 3.481918
54.900 3.403294
54.905 3.581932
54.910 3.513945
54.915 3.765787
54.920 3.73018
54.925 3.476935
54.930 3.404093
54.935 3.236563
54.940 3.201398
54.945 3.393395
54.950 3.389847
54.955 3.430653
54.960 3.518743
54.965 3.530621
54.970 3.820704
54.975 3.842354
54.980 3.650635
54.985 3.501585
54.990 3.064649
54.995 2.868135
55.000 2.786668
55.005 2.597464
55.010 2.462306
55.015 2.513668
55.020 2.516074
55.025 2.930306
55.030 3.197328
55.035 3.504649
55.040 3.53582
55.045 3.64204
55.050 3.792262
55.055 3.763823
55.060 3.658792
55.065 3.513955
55.070 3.497575
55.075 3.43662
55.080 3.464068
55.085 3.270352
55.090 3.122843
55.095 3.17464
55.100 3.604517
55.105 3.785883
55.110 3.679624
55.115 3.834178
55.120 4.098217
55.125 4.194272
55.130 4.108287
55.135 3.693314
55.140 3.378931
55.145 3.36233
55.150 3.096114
55.155 3.046232
55.160 3.272856
55.165 3.275927
55.170 3.225533
55.175 3.453049
55.180 3.685262
55.185 3.876328
55.190 3.509486
55.195 3.226007
55.200 3.181499
55.205 3.052212
55.210 2.816381
55.215 2.712503
55.220 2.600141
55.225 2.782229
55.230 2.755129
55.235 2.649325
55.240 3.120986
55.245 3.305343
55.250 3.233021
55.255 3.362196
55.260 3.558963
55.265 3.724347
55.270 3.651542
55.275 3.27615
55.280 3.321454
55.285 3.525136
55.290 3.579731
55.295 3.575693
55.300 3.688172
55.305 3.771519
55.310 3.891873
55.315 3.841289
55.320 3.699273
55.325 3.654258
55.330 3.620724
55.335 3.504959
55.340 3.551633
55.345 3.486113
55.350 3.279779
55.355 3.137649
55.360 2.989231
55.365 3.00944
55.370 3.139612
55.375 3.203526
55.380 3.434432
55.385 3.607362
55.390 3.760858
55.395 3.576557
55.400 3.562621
55.405 3.365261
55.410 3.040051
55.415 2.682277
55.420 2.438471
55.425 2.720846
55.430 3.005128
55.435 3.064243
55.440 3.172419
55.445 3.439698
55.450 3.730959
55.455 4.035817
55.460 4.100202
55.465 4.306008
55.470 4.338012
55.475 4.342778
55.480 4.320624
55.485 4.279351
55.490 4.087139
55.495 3.946254
55.500 3.540495
55.505 3.73243
55.510 3.840994
55.515 3.841117
55.520 3.793103
55.525 3.751578
55.530 3.368927
55.535 3.625425
55.540 3.419439
55.545 3.254657
55.550 3.280034
55.555 3.374348
55.560 3.410413
55.565 3.47589
55.570 3.168631
55.575 3.266756
55.580 3.102319
55.585 3.134736
55.590 3.082572
55.595 3.184599
55.600 3.383549
55.605 3.542346
55.610 3.646003
55.615 3.856383
55.620 3.649292
55.625 3.839988
55.630 3.790452
55.635 3.47846
55.640 3.544247
55.645 3.600352
55.650 3.648802
55.655 3.865444
55.660 3.774052
55.665 3.655014
55.670 3.742082
55.675 3.612926
55.680 3.455333
55.685 3.18441
55.690 3.014527
55.695 3.134038
55.700 3.426554
55.705 3.649939
55.710 3.974372
55.715 4.277575
55.720 4.557214
55.725 4.623994
55.730 4.721524
55.735 4.472095
55.740 4.097473
55.745 4.077607
55.750 4.021881
55.755 3.773947
55.760 3.454431
55.765 3.326293
55.770 3.752652
55.775 3.893638
55.780 3.425372
55.785 3.396519
55.790 3.468919
55.795 3.735917
55.800 3.862009
55.805 3.572721
55.810 3.520713
55.815 3.735884
55.820 3.7597
55.825 3.708688
55.830 3.740287
55.835 3.510552
55.840 3.471941
55.845 3.882603
55.850 4.229584
55.855 4.404497
55.860 4.349365
55.865 4.089138
55.870 4.08281
55.875 4.20482
55.880 3.921757
55.885 3.756366
55.890 3.566429
55.895 3.674308
55.900 3.8235
55.905 3.860931
55.910 3.945765
55.915 3.813399
55.920 4.131986
55.925 4.511459
55.930 4.412827
55.935 4.479217
55.940 5.171136
55.945 5.162297
55.950 4.864582
55.955 4.424837
55.960 4.420172
55.965 4.313046
55.970 4.211216
55.975 3.351824
55.980 3.154531
55.985 3.123393
55.990 2.981077
55.995 2.935392
56.000 3.029959
56.005 3.002662
56.010 3.239055
56.015 3.434242
56.020 3.623265
56.025 3.627522
56.030 3.632705
56.035 3.472555
56.040 3.39893
56.045 3.677718
56.050 3.631885
56.055 3.541146
56.060 3.667563
56.065 3.617309
56.070 3.876375
56.075 3.867763
56.080 3.6034
56.085 3.959132
56.090 3.944254
56.095 3.999714
56.100 4.037909
56.105 3.85908
56.110 3.670902
56.115 3.369318
56.120 3.239146
56.125 3.188962
56.130 3.161882
56.135 3.193599
56.140 3.254209
56.145 3.42749
56.150 3.440706
56.155 3.487295
56.160 3.469169
56.165 3.458032
56.170 3.529872
56.175 3.410125
56.180 3.537548
56.185 3.881242
56.190 3.865197
56.195 3.697625
56.200 3.655309
56.205 3.680885
56.210 3.733199
56.215 3.849932
56.220 3.545574
56.225 3.672268
56.230 4.099144
56.235 4.302281
56.240 4.364817
56.245 4.201926
56.250 4.273372
56.255 4.345618
56.260 4.086666
56.265 3.762097
56.270 3.432569
56.275 3.331776
56.280 3.32449
56.285 3.015743
56.290 2.961177
56.295 3.319387
56.300 3.453087
56.305 3.754928
56.310 4.048803
56.315 4.058746
56.320 4.469951
56.325 4.607409
56.330 4.570745
56.335 4.56223
56.340 4.367738
56.345 4.307917
56.350 4.108366
56.355 4.092489
56.360 3.916183
56.365 3.641697
56.370 3.725
56.375 3.715965
56.380 3.622487
56.385 3.5257
56.390 3.191274
56.395 3.514007
56.400 3.458596
56.405 3.311323
56.410 3.232963
56.415 3.411112
56.420 3.852866
56.425 4.140404
56.430 4.048094
56.435 4.14048
56.440 4.31588
56.445 4.479434
56.450 4.374139
56.455 4.168731
56.460 4.097002
56.465 4.036251
56.470 4.095317
56.475 4.209413
56.480 4.324668
56.485 4.239433
56.490 4.111774
56.495 4.276807
56.500 4.310636
56.505 4.371554
56.510 4.506066
56.515 4.400832
56.520 4.743649
56.525 4.830297
56.530 4.873961
56.535 4.883132
56.540 4.450145
56.545 3.981609
56.550 3.87917
56.555 3.554063
56.560 3.44367
56.565 3.243159
56.570 3.119027
56.575 3.179038
56.580 3.398199
56.585 3.503907
56.590 3.524512
56.595 3.749567
56.600 3.797828
56.605 3.975681
56.610 4.124636
56.615 3.948423
56.620 4.24829
56.625 4.267025
56.630 3.907669
56.635 4.069607
56.640 4.201474
56.645 4.056656
56.650 3.857399
56.655 3.584306
56.660 3.837656
56.665 3.964469
56.670 3.862898
56.675 3.730773
56.680 3.731702
56.685 3.72215
56.690 3.59666
56.695 3.521969
56.700 3.67004
56.705 3.698163
56.710 3.827646
56.715 3.822456
56.720 4.051238
56.725 4.141711
56.730 4.175774
56.735 4.099785
56.740 3.957609
56.745 3.996253
56.750 4.157163
56.755 4.413922
56.760 4.478478
56.765 4.275487
56.770 4.284911
56.775 4.031887
56.780 3.982631
56.785 3.981754
56.790 3.880095
56.795 3.93195
56.800 3.979633
56.805 3.96573
56.810 4.098056
56.815 4.187459
56.820 4.281078
56.825 4.343827
56.830 4.135594
56.835 4.18313
56.840 4.319181
56.845 4.455556
56.850 4.360595
56.855 4.238439
56.860 3.989625
56.865 4.163867
56.870 4.151982
56.875 3.911689
56.880 3.795221
56.885 3.876383
56.890 3.79026
56.895 3.975535
56.900 3.744787
56.905 3.695328
56.910 4.047895
56.915 4.162675
56.920 4.224008
56.925 4.274617
56.930 4.205812
56.935 4.156815
56.940 3.777682
56.945 3.373776
56.950 3.416404
56.955 3.486629
56.960 3.422107
56.965 3.343815
56.970 3.807973
56.975 4.531359
56.980 4.634073
56.985 4.49807
56.990 4.570286
56.995 4.884516
57.000 5.030234
57.005 5.142339
57.010 5.034441
57.015 5.096502
57.020 5.087528
57.025 4.823411
57.030 4.632068
57.035 4.502185
57.040 3.950607
57.045 3.433156
57.050 3.385585
57.055 3.44422
57.060 3.55194
57.065 3.509925
57.070 3.524022
57.075 3.696661
57.080 3.829494
57.085 3.728003
57.090 3.653716
57.095 3.581109
57.100 3.905717
57.105 4.004172
57.110 4.166097
57.115 4.008392
57.120 4.054708
57.125 4.393839
57.130 4.572572
57.135 4.488587
57.140 4.462695
57.145 4.464166
57.150 4.659705
57.155 4.361251
57.160 4.322987
57.165 4.361509
57.170 4.216817
57.175 4.129112
57.180 4.059061
57.185 3.993737
57.190 4.16993
57.195 3.969169
57.200 3.724512
57.205 3.712594
57.210 3.786439
57.215 3.850091
57.220 3.857026
57.225 3.870763
57.230 3.81866
57.235 3.791863
57.240 3.815534
57.245 3.557299
57.250 3.530001
57.255 3.752331
57.260 3.649277
57.265 3.664465
57.270 3.642193
57.275 3.701071
57.280 4.161755
57.285 4.331036
57.290 4.209858
57.295 4.255866
57.300 4.48143
57.305 4.650934
57.310 4.464159
57.315 3.875269
57.320 3.708763
57.325 3.79286
57.330 3.830916
57.335 3.732635
57.340 3.634053
57.345 3.97394
57.350 4.488121
57.355 4.336169
57.360 4.100728
57.365 3.871661
57.370 4.044621
57.375 3.930883
57.380 3.605451
57.385 3.330455
57.390 3.597782
57.395 3.792705
57.400 3.768137
57.405 3.882981
57.410 3.916403
57.415 4.04082
57.420 4.243041
57.425 3.971757
57.430 3.573294
57.435 3.458755
57.440 3.175452
57.445 3.113913
57.450 3.205066
57.455 3.038662
57.460 3.365827
57.465 3.729647
57.470 3.547138
57.475 3.764003
57.480 3.990668
57.485 3.888594
57.490 4.124199
57.495 3.795635
57.500 3.847924
57.505 4.130811
57.510 4.049565
57.515 4.089364
57.520 4.015729
57.525 3.736281
57.530 3.684575
57.535 3.857414
57.540 3.911086
57.545 3.999124
57.550 3.927029
57.555 4.207382
57.560 4.557122
57.565 4.619222
57.570 4.337867
57.575 4.459129
57.580 4.396833
57.585 4.446078
57.590 4.27008
57.595 4.241467
57.600 4.453104
57.605 4.411979
57.610 4.201441
57.615 4.115002
57.620 4.074648
57.625 4.178469
57.630 4.044958
57.635 3.820605
57.640 3.832109
57.645 3.988896
57.650 3.943208
57.655 3.893618
57.660 3.993366
57.665 4.323061
57.670 4.340671
57.675 4.34156
57.680 4.25878
57.685 4.410782
57.690 4.218427
57.695 4.027817
57.700 3.679088
57.705 3.907362
57.710 3.982574
57.715 3.83297
57.720 3.784027
57.725 3.954358
57.730 3.821361
57.735 4.292283
57.740 4.277481
57.745 4.043557
57.750 4.001741
57.755 3.890133
57.760 3.968223
57.765 4.041684
57.770 3.64641
57.775 3.617452
57.780 3.729062
57.785 3.983853
57.790 4.057737
57.795 4.072607
57.800 4.2909
57.805 4.778663
57.810 4.913053
57.815 5.005238
57.820 5.226277
57.825 5.713324
57.830 5.388526
57.835 4.888714
57.840 4.514197
57.845 4.3626
57.850 4.331971
57.855 3.861531
57.860 3.499185
57.865 3.635782
57.870 3.675897
57.875 3.501392
57.880 3.446201
57.885 3.713561
57.890 3.694095
57.895 3.450947
57.900 3.526912
57.905 3.552684
57.910 3.621951
57.915 3.595782
57.920 3.250828
57.925 3.206124
57.930 3.583089
57.935 3.820728
57.940 3.930699
57.945 3.858109
57.950 3.774741
57.955 3.714852
57.960 3.800013
57.965 3.642685
57.970 3.889034
57.975 3.957506
57.980 3.779149
57.985 3.650188
57.990 3.61897
57.995 3.470248
58.000 3.491524
58.005 3.083655
58.010 3.286927
58.015 3.64469
58.020 3.80067
58.025 3.937845
58.030 3.982422
58.035 3.907835
58.040 4.010403
58.045 3.858357
58.050 3.793385
58.055 4.039135
58.060 4.048658
58.065 4.232935
58.070 4.368767
58.075 4.376066
58.080 4.337396
58.085 4.208534
58.090 4.121716
58.095 4.008754
58.100 3.871712
58.105 3.925133
58.110 4.137289
58.115 4.102761
58.120 4.18667
58.125 4.10588
58.130 4.163779
58.135 4.134662
58.140 4.044549
58.145 4.134835
58.150 4.347939
58.155 4.594462
58.160 4.783332
58.165 4.652124
58.170 4.593851
58.175 4.550615
58.180 4.355473
58.185 4.285356
58.190 3.79349
58.195 3.635221
58.200 3.972209
58.205 4.047695
58.210 3.858083
58.215 3.771808
58.220 3.643858
58.225 3.710487
58.230 3.933756
58.235 3.738436
58.240 3.689545
58.245 3.835583
58.250 3.78151
58.255 3.999619
58.260 4.122968
58.265 3.825858
58.270 3.61744
58.275 3.702547
58.280 3.783692
58.285 3.959189
58.290 3.974369
58.295 4.067785
58.300 4.148342
58.305 4.214239
58.310 3.995707
58.315 4.057045
58.320 4.080795
58.325 3.942495
58.330 3.848065
58.335 3.873671
58.340 4.188467
58.345 4.224257
58.350 4.411198
58.355 4.494857
58.360 4.67807
58.365 4.67606
58.370 4.771401
58.375 4.585744
58.380 4.373754
58.385 3.830794
58.390 4.001188
58.395 4.021524
58.400 4.333361
58.405 4.471938
58.410 4.51313
58.415 4.617339
58.420 4.778887
58.425 4.404522
58.430 4.357945
58.435 4.139473
58.440 3.966532
58.445 4.012218
58.450 4.116529
58.455 4.298721
58.460 4.218632
58.465 4.089671
58.470 4.17873
58.475 4.08484
58.480 4.044815
58.485 3.981963
58.490 4.108921
58.495 4.197735
58.500 4.187862
58.505 4.266763
58.510 4.17206
58.515 4.049831
58.520 4.040543
58.525 3.821948
58.530 3.867115
58.535 3.942231
58.540 3.949492
58.545 4.010348
58.550 4.092675
58.555 4.032042
58.560 3.921367
58.565 4.095375
58.570 3.955463
58.575 3.889209
58.580 3.901126
58.585 3.794457
58.590 3.759379
58.595 3.918615
58.600 3.623951
58.605 3.748197
58.610 3.86925
58.615 4.023684
58.620 4.093426
58.625 4.194721
58.630 4.197986
58.635 4.319608
58.640 4.247487
58.645 3.987595
58.650 4.029439
58.655 4.200939
58.660 4.044751
58.665 4.048251
58.670 4.04819
58.675 4.123562
58.680 4.339989
58.685 4.449568
58.690 4.481887
58.695 4.452855
58.700 4.488936
58.705 4.563183
58.710 4.544106
58.715 4.352445
58.720 4.274925
58.725 4.208581
58.730 4.284493
58.735 4.39559
58.740 4.111145
58.745 4.113727
58.750 4.282051
58.755 4.206486
58.760 4.651666
58.765 4.798611
58.770 4.633598
58.775 4.809266
58.780 4.845385
58.785 4.956192
58.790 5.028905
58.795 4.644022
58.800 4.458258
58.805 4.703168
58.810 4.776127
58.815 4.883517
58.820 4.489913
58.825 4.31085
58.830 4.293776
58.835 4.502028
58.840 4.205441
58.845 3.917492
58.850 3.717731
58.855 3.919408
58.860 3.974422
58.865 3.781583
58.870 3.661431
58.875 3.988746
58.880 4.424634
58.885 4.23541
58.890 4.328181
58.895 4.429491
58.900 4.559135
58.905 4.48413
58.910 4.85022
58.915 4.792423
58.920 5.060861
58.925 5.291467
58.930 5.522988
58.935 5.669592
58.940 5.564807
58.945 4.962623
58.950 4.840259
58.955 4.777201
58.960 4.62595
58.965 4.447662
58.970 4.55211
58.975 4.844401
58.980 4.679895
58.985 4.481659
58.990 4.300647
58.995 4.030588
59.000 3.986945
59.005 3.886475
59.010 3.738435
59.015 3.929482
59.020 4.537771
59.025 4.521826
59.030 4.706836
59.035 5.075495
59.040 5.091835
59.045 5.233611
59.050 5.310936
59.055 4.747012
59.060 4.687826
59.065 4.364334
59.070 3.939
59.075 3.772327
59.080 3.640628
59.085 3.71074
59.090 4.118427
59.095 4.360625
59.100 4.525932
59.105 4.670487
59.110 4.841202
59.115 4.618717
59.120 4.276811
59.125 3.801596
59.130 3.787408
59.135 3.751216
59.140 3.596634
59.145 3.762969
59.150 4.082985
59.155 4.066979
59.160 4.209727
59.165 4.143587
59.170 4.007065
59.175 3.964134
59.180 3.941684
59.185 3.936412
59.190 4.188595
59.195 4.351208
59.200 4.333458
59.205 4.386689
59.210 4.390744
59.215 4.382438
59.220 4.403921
59.225 4.213844
59.230 4.327439
59.235 4.405033
59.240 4.385884
59.245 4.295721
59.250 4.254973
59.255 4.467377
59.260 4.534444
59.265 4.516044
59.270 4.594649
59.275 4.561675
59.280 4.393319
59.285 4.257976
59.290 4.059189
59.295 3.807307
59.300 3.707337
59.305 3.854845
59.310 4.230699
59.315 4.46878
59.320 4.318172
59.325 4.443116
59.330 4.60042
59.335 4.78988
59.340 4.760757
59.345 4.86896
59.350 5.261868
59.355 5.5641
59.360 5.625679
59.365 5.901829
59.370 5.521041
59.375 5.33108
59.380 4.951346
59.385 4.561061
59.390 4.135648
59.395 3.962079
59.400 3.728574
59.405 3.841784
59.410 3.740307
59.415 3.918226
59.420 4.108303
59.425 4.196101
59.430 4.062436
59.435 3.799886
59.440 3.974935
59.445 3.991389
59.450 3.586487
59.455 3.463116
59.460 3.401008
59.465 3.836266
59.470 4.118289
59.475 4.124214
59.480 4.032576
59.485 4.345805
59.490 4.526281
59.495 4.684072
59.500 4.859219
59.505 4.720833
59.510 4.68495
59.515 4.650118
59.520 4.756828
59.525 4.593235
59.530 4.321924
59.535 4.171875
59.540 4.341878
59.545 4.487123
59.550 4.806842
59.555 4.893064
59.560 5.024359
59.565 4.836585
59.570 4.642021
59.575 4.539618
59.580 4.328457
59.585 3.993473
59.590 3.634596
59.595 3.750037
59.600 3.713524
59.605 3.584226
59.610 3.424973
59.615 3.577296
59.620 3.939401
59.625 4.02035
59.630 3.939878
59.635 4.295742
59.640 4.402047
59.645 4.834261
59.650 4.640835
59.655 4.656585
59.660 5.26555
59.665 5.334347
59.670 5.159386
59.675 4.85417
59.680 4.474891
59.685 4.559808
59.690 4.295954
59.695 3.701103
59.700 3.787396
59.705 3.86149
59.710 3.969632
59.715 4.04914
59.720 3.778229
59.725 3.708842
59.730 4.005959
59.735 4.129367
59.740 4.136709
59.745 4.322878
59.750 4.321919
59.755 4.719991
59.760 4.688907
59.765 4.354414
59.770 4.05478
59.775 4.281852
59.780 4.566243
59.785 4.49726
59.790 4.572259
59.795 5.004663
59.800 5.288613
59.805 5.513694
59.810 5.638894
59.815 5.615054
59.820 5.742212
59.825 5.919756
59.830 5.755896
59.835 5.329806
59.840 4.881996
59.845 4.583009
59.850 4.29817
59.855 4.17608
59.860 3.762189
59.865 3.670692
59.870 3.819029
59.875 3.820001
59.880 3.661937
59.885 3.645327
59.890 3.669795
59.895 3.358861
59.900 3.45388
59.905 3.567376
59.910 4.035952
59.915 4.189308
59.920 4.122782
59.925 4.368472
59.930 4.596106
59.935 4.516498
59.940 4.57462
59.945 4.284644
59.950 4.282451
59.955 4.348719
59.960 4.318275
59.965 4.671668
59.970 4.754398
59.975 4.588802
59.980 4.728672
59.985 4.863448
59.990 4.891146
59.995 5.149011
60.000 5.027135
60.005 5.19652
60.010 5.364073
60.015 5.056319
60.020 4.85037
60.025 4.949059
60.030 4.681103
60.035 4.699007
60.040 4.65616
60.045 4.842195
60.050 5.300017
60.055 5.70171
60.060 5.594693
60.065 5.55267
60.070 5.190583
60.075 5.276488
60.080 5.133442
60.085 4.807388
60.090 4.55128
60.095 4.640283
60.100 4.459418
60.105 4.632209
60.110 4.717604
60.115 4.452447
60.120 4.407845
60.125 4.388367
60.130 4.270717
60.135 4.627617
60.140 4.488313
60.145 4.183304
60.150 4.167387
60.155 4.284802
60.160 4.427103
60.165 4.111923
60.170 3.741602
60.175 3.884636
60.180 4.153823
60.185 4.439214
60.190 4.055118
60.195 3.718865
60.200 4.02138
60.205 4.177189
60.210 4.058078
60.215 3.905265
60.220 4.041867
60.225 4.27702
60.230 4.223647
60.235 4.099053
60.240 4.030632
60.245 4.11478
60.250 4.132331
60.255 4.015836
60.260 4.110587
60.265 4.459864
60.270 4.462875
60.275 4.393232
60.280 4.406447
60.285 4.519797
60.290 4.578157
60.295 4.654003
60.300 4.690485
60.305 4.638575
60.310 4.949998
60.315 4.923947
60.320 5.068285
60.325 5.006318
60.330 5.017712
60.335 4.887313
60.340 4.922737
60.345 4.599084
60.350 4.381234
60.355 4.003252
60.360 3.857597
60.365 3.7527
60.370 3.737464
60.375 3.60571
60.380 3.468657
60.385 3.649042
60.390 3.832073
60.395 3.801381
60.400 3.929751
60.405 3.911965
60.410 3.8685
60.415 3.800054
60.420 3.542177
60.425 3.559668
60.430 4.271127
60.435 4.045474
60.440 4.222316
60.445 4.544723
60.450 4.792983
60.455 5.012806
60.460 4.885225
60.465 4.189925
60.470 4.237926
60.475 4.204498
60.480 4.50544
60.485 4.414834
60.490 4.23195
60.495 4.110818
60.500 4.180557
60.505 4.156311
60.510 4.474884
60.515 4.569734
60.520 4.825987
60.525 4.986895
60.530 5.05344
60.535 5.023773
60.540 4.789485
60.545 4.008523
60.550 3.845917
60.555 3.705527
60.560 3.612147
60.565 3.717865
60.570 4.161046
60.575 4.658539
60.580 5.008615
60.585 4.706306
60.590 4.661728
60.595 4.852827
60.600 4.790841
60.605 4.418664
60.610 4.267498
60.615 4.24832
60.620 4.465206
60.625 4.394806
60.630 4.414091
60.635 4.332217
60.640 4.264135
60.645 4.305705
60.650 4.302463
60.655 4.130041
60.660 4.209827
60.665 4.302502
60.670 4.50824
60.675 4.50726
60.680 4.529981
60.685 4.265198
60.690 4.402122
60.695 4.287579
60.700 4.003626
60.705 3.967023
60.710 4.15602
60.715 4.222602
60.720 4.737924
60.725 4.760921
60.730 4.989732
60.735 5.158576
60.740 5.165195
60.745 5.148543
60.750 5.147056
60.755 5.09426
60.760 5.139191
60.765 5.039497
60.770 5.149218
60.775 5.161863
60.780 5.042144
60.785 4.672586
60.790 4.620811
60.795 4.654192
60.800 4.844874
60.805 4.495149
60.810 4.447372
60.815 4.686068
60.820 5.007043
60.825 4.807913
60.830 4.802995
60.835 4.660244
60.840 4.741467
60.845 4.542076
60.850 4.072352
60.855 4.176214
60.860 4.086018
60.865 3.989213
60.870 4.076602
60.875 4.260767
60.880 4.496713
60.885 4.555946
60.890 4.44194
60.895 4.354601
60.900 4.492939
60.905 4.300712
60.910 4.214213
60.915 4.206795
60.920 4.256446
60.925 4.384347
60.930 4.500596
60.935 4.270838
60.940 4.148427
60.945 4.382276
60.950 4.584812
60.955 4.575069
60.960 4.618361
60.965 4.737995
60.970 4.761294
60.975 4.874439
60.980 4.659537
60.985 4.567695
60.990 4.387728
60.995 3.960392
61.000 3.926719
61.005 4.026035
61.010 4.281723
61.015 4.195804
61.020 3.886255
61.025 4.122983
61.030 4.565541
61.035 4.375325
61.040 4.298694
61.045 4.189135
61.050 4.47291
61.055 4.556888
61.060 4.700272
61.065 4.422231
61.070 4.571923
61.075 4.783814
61.080 4.775237
61.085 4.669401
61.090 4.864941
61.095 4.589697
61.100 4.86473
61.105 5.058141
61.110 5.002812
61.115 4.687037
61.120 4.714167
61.125 4.782683
61.130 4.834772
61.135 4.770368
61.140 4.725611
61.145 4.346158
61.150 4.385518
61.155 4.212342
61.160 4.09791
61.165 4.250496
61.170 4.562553
61.175 4.593448
61.180 4.950497
61.185 4.866723
61.190 5.2128
61.195 5.344454
61.200 5.146126
61.205 5.183891
61.210 5.327703
61.215 5.426703
61.220 6.031823
61.225 6.108092
61.230 6.290135
61.235 6.228349
61.240 5.624833
61.245 5.530986
61.250 5.68216
61.255 5.277548
61.260 4.930848
61.265 4.553326
61.270 4.531311
61.275 4.49696
61.280 4.340691
61.285 4.122864
61.290 4.050929
61.295 3.993573
61.300 4.193147
61.305 4.504472
61.310 4.666008
61.315 4.622699
61.320 4.574491
61.325 4.685637
61.330 4.785216
61.335 4.494145
61.340 3.991512
61.345 3.750337
61.350 3.761172
61.355 4.021125
61.360 4.151117
61.365 4.237477
61.370 4.726151
61.375 5.075684
61.380 5.375814
61.385 5.2395
61.390 4.909756
61.395 4.899354
61.400 4.834489
61.405 4.531289
61.410 4.374928
61.415 4.399917
61.420 4.452845
61.425 4.273925
61.430 4.003922
61.435 4.092272
61.440 4.580741
61.445 4.781605
61.450 4.692722
61.455 4.861359
61.460 4.977264
61.465 5.076332
61.470 4.756585
61.475 4.062955
61.480 4.107138
61.485 4.24617
61.490 4.184914
61.495 4.3931
61.500 4.26584
61.505 4.534212
61.510 4.671871
61.515 4.435139
61.520 4.31878
61.525 4.240027
61.530 4.226557
61.535 4.25531
61.540 4.347095
61.545 4.51785
61.550 4.515604
61.555 4.274509
61.560 4.30049
61.565 4.360027
61.570 4.548544
61.575 4.190156
61.580 3.966927
61.585 3.825152
61.590 4.024558
61.595 4.148315
61.600 4.016497
61.605 4.146889
61.610 4.553409
61.615 4.927306
61.620 5.042819
61.625 4.970751
61.630 4.834762
61.635 4.821864
61.640 4.85392
61.645 4.644963
61.650 4.562698
61.655 4.922039
61.660 5.065476
61.665 4.941802
61.670 4.796157
61.675 4.50403
61.680 4.36777
61.685 4.515949
61.690 4.343344
61.695 4.39452
61.700 4.487112
61.705 4.576235
61.710 4.674112
61.715 4.762942
61.720 4.762312
61.725 5.198073
61.730 5.448718
61.735 5.632286
61.740 5.789073
61.745 5.820378
61.750 5.74033
61.755 5.604192
61.760 5.242929
61.765 4.909841
61.770 5.063247
61.775 4.921446
61.780 4.834525
61.785 5.148706
61.790 4.97198
61.795 4.876355
61.800 4.857275
61.805 4.7301
61.810 4.951227
61.815 5.076864
61.820 5.011955
61.825 5.235716
61.830 5.258778
61.835 5.416452
61.840 5.062345
61.845 5.011266
61.850 5.15135
61.855 5.167589
61.860 5.17871
61.865 5.202743
61.870 5.213387
61.875 5.28191
61.880 5.448924
61.885 5.200454
61.890 4.79997
61.895 4.819206
61.900 5.298941
61.905 5.455195
61.910 5.444137
61.915 5.318732
61.920 5.381077
61.925 6.038953
61.930 5.954687
61.935 5.585323
61.940 5.465602
61.945 5.156064
61.950 5.078942
61.955 5.105975
61.960 4.877726
61.965 4.872028
61.970 5.124331
61.975 5.074625
61.980 5.131236
61.985 5.133522
61.990 5.115401
61.995 4.960746
62.000 4.47477
62.005 4.064841
62.010 4.03052
62.015 4.323668
62.020 4.492941
62.025 4.61107
62.030 4.780138
62.035 5.252038
62.040 5.34212
62.045 5.647145
62.050 5.472199
62.055 5.266718
62.060 5.210972
62.065 5.17893
62.070 5.259866
62.075 5.073129
62.080 4.908143
62.085 5.171076
62.090 5.07718
62.095 4.901527
62.100 4.8657
62.105 4.846886
62.110 5.013809
62.115 5.097221
62.120 5.201165
62.125 5.67387
62.130 5.883674
62.135 6.077781
62.140 5.911162
62.145 5.764202
62.150 5.766431
62.155 5.647525
62.160 5.325575
62.165 5.097597
62.170 5.076193
62.175 5.190574
62.180 5.277357
62.185 5.411353
62.190 5.461255
62.195 5.474362
62.200 5.633712
62.205 5.600535
62.210 5.603851
62.215 5.641255
62.220 5.452641
62.225 5.354674
62.230 5.498039
62.235 5.330567
62.240 5.019911
62.245 4.923941
62.250 4.862969
62.255 4.98378
62.260 5.114694
62.265 4.899208
62.270 4.921114
62.275 4.902993
62.280 4.834416
62.285 5.169746
62.290 4.775882
62.295 4.398893
62.300 4.52867
62.305 4.868406
62.310 5.056624
62.315 4.892543
62.320 4.350641
62.325 4.475612
62.330 4.560176
62.335 4.354208
62.340 3.981273
62.345 4.270951
62.350 4.596585
62.355 4.872442
62.360 4.879884
62.365 4.986364
62.370 5.232703
62.375 5.114147
62.380 4.496983
62.385 4.135412
62.390 4.057335
62.395 4.031252
62.400 3.910313
62.405 3.859965
62.410 4.392065
62.415 5.201916
62.420 5.556191
62.425 5.802432
62.430 5.936471
62.435 6.079948
62.440 6.282364
62.445 5.932046
62.450 5.541889
62.455 5.486389
62.460 5.271601
62.465 5.176487
62.470 5.102203
62.475 4.974793
62.480 4.968191
62.485 4.798441
62.490 4.812088
62.495 4.765711
62.500 4.88052
62.505 4.86023
62.510 5.041378
62.515 5.241199
62.520 5.295547
62.525 5.265125
62.530 5.187794
62.535 5.204118
62.540 5.130853
62.545 4.712452
62.550 4.395056
62.555 4.550219
62.560 4.434906
62.565 4.520779
62.570 4.488817
62.575 4.710651
62.580 4.965141
62.585 5.383804
62.590 5.711931
62.595 6.288941
62.600 6.393142
62.605 6.347357
62.610 6.138668
62.615 6.269706
62.620 6.118654
62.625 5.682545
62.630 5.219447
62.635 5.011748
62.640 4.874418
62.645 4.756772
62.650 4.675571
62.655 4.493967
62.660 4.629716
62.665 4.522126
62.670 4.476223
62.675 4.554648
62.680 4.547318
62.685 4.617942
62.690 4.80324
62.695 4.868694
62.700 5.388305
62.705 5.696221
62.710 5.602616
62.715 5.438007
62.720 5.313436
62.725 5.032207
62.730 5.036003
62.735 4.920382
62.740 4.82378
62.745 4.950388
62.750 5.257163
62.755 5.462631
62.760 5.789728
62.765 5.649469
62.770 5.564548
62.775 5.710402
62.780 5.94536
62.785 5.910418
62.790 5.729267
62.795 5.790147
62.800 5.720341
62.805 5.69226
62.810 5.54971
62.815 5.542647
62.820 5.427205
62.825 5.570044
62.830 5.355259
62.835 5.574633
62.840 5.739628
62.845 5.85789
62.850 5.632732
62.855 5.827013
62.860 5.892449
62.865 5.95233
62.870 5.884833
62.875 5.779103
62.880 5.822664
62.885 5.752316
62.890 5.721978
62.895 5.730492
62.900 5.747951
62.905 5.675691
62.910 5.84516
62.915 5.851725
62.920 5.832942
62.925 5.545507
62.930 5.639956
62.935 5.54232
62.940 5.306274
62.945 5.056211
62.950 5.044199
62.955 5.16347
62.960 5.304042
62.965 5.120439
62.970 5.199191
62.975 5.262487
62.980 5.114139
62.985 4.922718
62.990 5.188931
62.995 5.320287
63.000 5.308762
63.005 5.378034
63.010 5.515065
63.015 5.731586
63.020 6.014057
63.025 5.722162
63.030 5.435343
63.035 5.34071
63.040 5.278077
63.045 5.218937
63.050 5.319352
63.055 5.076578
63.060 5.096609
63.065 5.268675
63.070 5.338583
63.075 5.188389
63.080 5.288043
63.085 4.975194
63.090 5.054937
63.095 5.031461
63.100 5.031543
63.105 4.804982
63.110 4.733788
63.115 4.829782
63.120 5.066407
63.125 5.0597
63.130 4.933926
63.135 4.902031
63.140 5.16732
63.145 5.214179
63.150 5.076836
63.155 5.136182
63.160 5.215059
63.165 5.084442
63.170 5.044413
63.175 4.808605
63.180 4.303977
63.185 4.080726
63.190 4.163603
63.195 3.931464
63.200 4.268044
63.205 4.243997
63.210 4.552093
63.215 4.948624
63.220 5.03864
63.225 4.696475
63.230 4.975345
63.235 4.944553
63.240 5.068551
63.245 5.003082
63.250 5.0165
63.255 5.213968
63.260 5.598743
63.265 5.487569
63.270 5.142675
63.275 4.986266
63.280 4.929968
63.285 4.841405
63.290 4.894039
63.295 4.826427
63.300 5.191879
63.305 5.465496
63.310 5.493887
63.315 5.561606
63.320 5.412713
63.325 4.94134
63.330 4.692466
63.335 4.276917
63.340 4.233704
63.345 4.314753
63.350 4.387976
63.355 4.575929
63.360 5.058101
63.365 5.199172
63.370 5.329539
63.375 5.517093
63.380 5.879172
63.385 5.798306
63.390 5.369912
63.395 5.171716
63.400 5.336331
63.405 5.149404
63.410 4.887965
63.415 4.513196
63.420 4.656763
63.425 4.985258
63.430 4.766995
63.435 4.689267
63.440 4.716758
63.445 4.706923
63.450 4.546577
63.455 4.471304
63.460 4.570928
63.465 4.792186
63.470 4.797356
63.475 4.846004
63.480 4.787494
63.485 4.997517
63.490 4.80772
63.495 4.985029
63.500 5.149514
63.505 5.285247
63.510 5.29317
63.515 5.162742
63.520 4.936602
63.525 4.954243
63.530 4.852226
63.535 4.900986
63.540 4.608235
63.545 4.658857
63.550 4.723065
63.555 4.632105
63.560 4.651345
63.565 4.453883
63.570 4.115328
63.575 4.490317
63.580 4.499514
63.585 4.880433
63.590 5.386799
63.595 5.567139
63.600 5.859011
63.605 6.056464
63.610 5.74712
63.615 5.955593
63.620 5.946402
63.625 6.098499
63.630 6.007874
63.635 5.877534
63.640 6.012563
63.645 5.955368
63.650 5.754469
63.655 5.413414
63.660 5.256307
63.665 5.424216
63.670 5.222351
63.675 5.160011
63.680 5.43294
63.685 5.198097
63.690 5.566438
63.695 5.41467
63.700 5.098088
63.705 5.104332
63.710 5.099342
63.715 5.18115
63.720 5.844169
63.725 5.742431
63.730 5.962538
63.735 6.40776
63.740 6.070134
63.745 5.834109
63.750 5.802817
63.755 5.215905
63.760 4.845138
63.765 4.628226
63.770 4.449738
63.775 4.796196
63.780 4.997134
63.785 5.288741
63.790 5.403816
63.795 5.664417
63.800 5.426317
63.805 5.214308
63.810 5.192362
63.815 5.123333
63.820 4.694411
63.825 4.552026
63.830 4.326984
63.835 4.729471
63.840 4.984559
63.845 4.935397
63.850 4.917858
63.855 4.949268
63.860 5.072661
63.865 5.40335
63.870 5.154712
63.875 5.179374
63.880 5.151891
63.885 5.496671
63.890 5.589911
63.895 5.339285
63.900 5.006133
63.905 5.002736
63.910 4.839819
63.915 4.801429
63.920 4.483861
63.925 4.492471
63.930 4.779647
63.935 4.883044
63.940 4.700917
63.945 4.649725
63.950 4.675813
63.955 4.649649
63.960 4.424522
63.965 4.242338
63.970 4.32339
63.975 4.643331
63.980 4.568245
63.985 4.51595
63.990 4.661126
63.995 5.149288
64.000 5.642348
64.005 5.535596
64.010 5.616362
64.015 6.084879
64.020 6.348253
64.025 6.182082
64.030 5.763456
64.035 5.419483
64.040 5.246052
64.045 5.035452
64.050 4.853815
64.055 4.708607
64.060 4.867672
64.065 4.760534
64.070 5.112363
64.075 5.289177
64.080 5.291908
64.085 4.903991
64.090 4.557663
64.095 4.326405
64.100 4.324036
64.105 4.054536
64.110 4.067403
64.115 4.184618
64.120 4.378082
64.125 4.468666
64.130 4.767422
64.135 4.923532
64.140 5.251086
64.145 5.250498
64.150 5.042494
64.155 5.052918
64.160 5.137772
64.165 5.100713
64.170 5.171169
64.175 4.872339
64.180 5.25078
64.185 5.597829
64.190 5.571658
64.195 5.57587
64.200 5.633646
64.205 5.696262
64.210 5.702636
64.215 5.476911
64.220 5.374653
64.225 5.603529
64.230 5.896526
64.235 5.73532
64.240 5.490162
64.245 5.373998
64.250 5.158734
64.255 5.369045
64.260 5.446984
64.265 5.628712
64.270 5.842202
64.275 5.923718
64.280 6.108389
64.285 6.115771
64.290 5.710826
64.295 5.403784
64.300 4.847134
64.305 4.689736
64.310 4.949899
64.315 4.996859
64.320 5.138083
64.325 5.471111
64.330 5.941914
64.335 6.334342
64.340 6.430646
64.345 6.252901
64.350 6.03934
64.355 5.732358
64.360 5.60428
64.365 5.360809
64.370 5.177943
64.375 5.456303
64.380 5.613872
64.385 5.919596
64.390 6.404144
64.395 6.812217
64.400 6.718794
64.405 6.789042
64.410 6.617671
64.415 6.792668
64.420 6.869127
64.425 6.799974
64.430 6.567563
64.435 6.696596
64.440 6.617448
64.445 6.498721
64.450 6.255295
64.455 5.831542
64.460 5.702995
64.465 5.551338
64.470 5.261265
64.475 5.191605
64.480 5.337102
64.485 5.23919
64.490 5.606061
64.495 5.892472
64.500 6.157106
64.505 6.54662
64.510 6.735483
64.515 6.821952
64.520 6.810295
64.525 6.724
64.530 6.47629
64.535 6.25632
64.540 6.129762
64.545 6.208538
64.550 5.821308
64.555 6.061028
64.560 6.04179
64.565 6.066596
64.570 5.905712
64.575 5.700037
64.580 5.649852
64.585 6.001335
64.590 6.187715
64.595 6.170857
64.600 6.272618
64.605 6.083475
64.610 6.001966
64.615 5.486168
64.620 5.204322
64.625 5.161355
64.630 5.068829
64.635 5.155928
64.640 5.34225
64.645 5.653337
64.650 6.094786
64.655 5.81729
64.660 5.705536
64.665 5.744385
64.670 5.78384
64.675 5.903106
64.680 5.627525
64.685 5.57723
64.690 5.771249
64.695 5.488021
64.700 5.15598
64.705 5.010287
64.710 4.931282
64.715 4.998582
64.720 4.969771
64.725 5.023178
64.730 5.146625
64.735 5.111689
64.740 4.780408
64.745 4.661288
64.750 4.980508
64.755 4.992265
64.760 4.842227
64.765 4.866579
64.770 5.212326
64.775 5.455836
64.780 5.675964
64.785 5.611392
64.790 5.540191
64.795 5.729207
64.800 5.551178
64.805 5.323107
64.810 5.340687
64.815 5.289527
64.820 4.988062
64.825 4.995037
64.830 5.046861
64.835 5.515856
64.840 5.752457
64.845 5.57897
64.850 5.378594
64.855 5.4432
64.860 5.268451
64.865 5.406342
64.870 5.284497
64.875 5.217427
64.880 5.44682
64.885 5.520247
64.890 5.544184
64.895 5.565572
64.900 5.268263
64.905 5.134106
64.910 5.216821
64.915 4.911802
64.920 4.90334
64.925 5.14581
64.930 5.444929
64.935 5.55943
64.940 5.515063
64.945 5.637666
64.950 5.83654
64.955 6.096456
64.960 6.203256
64.965 6.064474
64.970 6.016927
64.975 5.930907
64.980 5.75755
64.985 5.544093
64.990 5.273492
64.995 4.964922
65.000 4.746821
65.005 4.959873
65.010 5.183661
65.015 5.510604
65.020 5.82783
65.025 5.958294
65.030 6.278831
65.035 6.541895
65.040 6.475401
65.045 6.398378
65.050 6.36157
65.055 6.419242
65.060 6.763419
65.065 6.581467
65.070 6.592003
65.075 6.618626
65.080 6.462176
65.085 6.377886
65.090 6.191578
65.095 5.872553
65.100 5.700123
65.105 5.333411
65.110 5.120934
65.115 5.160332
65.120 5.163669
65.125 5.163685
65.130 5.132949
65.135 5.330694
65.140 5.588957
65.145 5.647254
65.150 5.625923
65.155 5.616922
65.160 5.149184
65.165 5.32159
65.170 5.237694
65.175 5.157484
65.180 5.106455
65.185 5.136005
65.190 5.421599
65.195 5.628658
65.200 5.520984
65.205 5.705139
65.210 5.717678
65.215 6.122215
65.220 6.050124
65.225 5.934421
65.230 6.286792
65.235 6.007413
65.240 5.858608
65.245 5.890029
65.250 5.794121
65.255 5.982689
65.260 5.843899
65.265 5.372306
65.270 5.529214
65.275 5.582829
65.280 5.874432
65.285 5.998006
65.290 5.855981
65.295 5.779751
65.300 6.278243
65.305 6.242917
65.310 6.227676
65.315 6.059141
65.320 5.744973
65.325 5.811249
65.330 5.766918
65.335 5.667145
65.340 5.64933
65.345 5.7811
65.350 5.797101
65.355 5.642629
65.360 5.564611
65.365 5.708631
65.370 5.940545
65.375 6.356359
65.380 6.511961
65.385 6.811648
65.390 7.367086
65.395 7.269446
65.400 7.056116
65.405 6.602175
65.410 6.293423
65.415 5.527026
65.420 4.992995
65.425 4.750309
65.430 4.99415
65.435 5.142914
65.440 5.490177
65.445 5.644241
65.450 6.098104
65.455 6.191825
65.460 6.470713
65.465 6.345525
65.470 6.241786
65.475 5.958467
65.480 5.624348
65.485 5.644767
65.490 5.51193
65.495 5.445261
65.500 5.722343
65.505 5.867907
65.510 5.926237
65.515 6.164138
65.520 6.005256
65.525 6.04321
65.530 5.519438
65.535 5.710332
65.540 5.53687
65.545 5.32194
65.550 5.299467
65.555 5.200128
65.560 4.997251
65.565 5.069588
65.570 4.712533
65.575 5.119578
65.580 5.878789
65.585 6.220633
65.590 6.570349
65.595 6.775772
65.600 6.955333
65.605 7.195594
65.610 6.831522
65.615 6.363688
65.620 6.081574
65.625 6.088246
65.630 6.024831
65.635 5.923972
65.640 5.800169
65.645 6.136143
65.650 6.002105
65.655 6.111357
65.660 6.094427
65.665 6.01251
65.670 5.831504
65.675 5.755769
65.680 5.828183
65.685 5.871695
65.690 5.662598
65.695 5.559801
65.700 5.851637
65.705 6.078307
65.710 5.948405
65.715 5.833112
65.720 6.291882
65.725 6.283265
65.730 6.096898
65.735 5.888513
65.740 5.913021
65.745 6.078846
65.750 6.34064
65.755 5.905729
65.760 6.134726
65.765 6.514948
65.770 6.563263
65.775 6.42224
65.780 6.33759
65.785 5.791722
65.790 5.81586
65.795 5.603978
65.800 5.454687
65.805 5.465181
65.810 5.537974
65.815 5.491554
65.820 5.202431
65.825 5.208281
65.830 5.244494
65.835 5.09696
65.840 5.266654
65.845 5.195083
65.850 5.117097
65.855 5.467995
65.860 5.769109
65.865 6.10133
65.870 6.003407
65.875 5.73606
65.880 5.467291
65.885 5.652444
65.890 5.701228
65.895 5.339347
65.900 5.147759
65.905 5.314356
65.910 5.434166
65.915 5.549701
65.920 5.57785
65.925 5.232083
65.930 5.001341
65.935 4.911857
65.940 4.752924
65.945 4.714567
65.950 4.743779
65.955 4.736413
65.960 4.941541
65.965 5.411949
65.970 5.69883
65.975 5.698222
65.980 5.728681
65.985 5.546248
65.990 5.532214
65.995 5.913467
66.000 5.888982
66.005 5.74526
66.010 5.673215
66.015 5.685444
66.020 5.91933
66.025 6.017708
66.030 5.823452
66.035 5.206353
66.040 4.91475
66.045 5.005552
66.050 5.022643
66.055 5.124672
66.060 4.707719
66.065 4.46924
66.070 5.021235
66.075 5.584592
66.080 5.692131
66.085 5.586667
66.090 5.563817
66.095 5.825297
66.100 6.045486
66.105 6.231926
66.110 6.01088
66.115 6.003715
66.120 6.35127
66.125 6.154926
66.130 6.049732
66.135 5.891923
66.140 5.893147
66.145 6.135061
66.150 6.111366
66.155 5.89283
66.160 6.021903
66.165 6.073715
66.170 5.664173
66.175 5.398767
66.180 5.541958
66.185 5.608852
66.190 5.474218
66.195 5.460201
66.200 5.657911
66.205 5.634852
66.210 5.696768
66.215 5.099375
66.220 5.164885
66.225 5.192341
66.230 5.150719
66.235 5.017485
66.240 5.512227
66.245 5.341462
66.250 5.372046
66.255 5.193477
66.260 5.307878
66.265 5.176511
66.270 5.420959
66.275 5.431017
66.280 5.56475
66.285 5.805863
66.290 5.866597
66.295 5.661273
66.300 5.732178
66.305 5.820414
66.310 5.672456
66.315 5.763175
66.320 5.652092
66.325 5.61222
66.330 5.715312
66.335 5.809232
66.340 5.5708
66.345 5.403777
66.350 5.172028
66.355 5.155616
66.360 5.281016
66.365 5.304728
66.370 5.440476
66.375 5.747546
66.380 6.072299
66.385 5.899179
66.390 5.804523
66.395 6.020666
66.400 6.043016
66.405 5.753154
66.410 5.463551
66.415 5.304561
66.420 5.406382
66.425 5.529413
66.430 5.259831
66.435 5.390976
66.440 5.423963
66.445 5.217391
66.450 5.413116
66.455 5.809551
66.460 5.833572
66.465 5.591335
66.470 5.319881
66.475 5.46797
66.480 5.94027
66.485 6.143899
66.490 6.070084
66.495 6.09849
66.500 6.170909
66.505 6.11195
66.510 6.288628
66.515 5.928639
66.520 5.720591
66.525 5.823846
66.530 5.730443
66.535 5.767608
66.540 5.586989
66.545 5.231334
66.550 5.25812
66.555 5.057347
66.560 4.575407
66.565 4.69933
66.570 4.889581
66.575 5.180358
66.580 5.41807
66.585 5.568919
66.590 5.639847
66.595 5.721235
66.600 5.560776
66.605 5.458553
66.610 5.392546
66.615 5.476923
66.620 5.150666
66.625 5.397115
66.630 5.662147
66.635 5.853806
66.640 6.05758
66.645 5.916116
66.650 5.705145
66.655 5.844381
66.660 5.662535
66.665 5.614269
66.670 5.503263
66.675 5.522247
66.680 5.455307
66.685 5.291992
66.690 5.480782
66.695 5.575791
66.700 5.725161
66.705 6.09749
66.710 6.100674
66.715 6.441785
66.720 6.287751
66.725 6.241525
66.730 6.142325
66.735 5.916059
66.740 5.503071
66.745 5.268754
66.750 5.159781
66.755 5.184387
66.760 4.865206
66.765 4.63232
66.770 4.348048
66.775 4.566108
66.780 4.700125
66.785 4.558276
66.790 4.468297
66.795 4.799224
66.800 4.987907
66.805 5.233297
66.810 5.20891
66.815 5.229929
66.820 5.280617
66.825 5.542079
66.830 5.283239
66.835 5.283769
66.840 5.417428
66.845 5.162347
66.850 5.058796
66.855 5.206532
66.860 5.469178
66.865 5.622799
66.870 5.824558
66.875 5.83015
66.880 6.024415
66.885 6.112334
66.890 6.095727
66.895 5.808856
66.900 6.066638
66.905 6.24707
66.910 6.273206
66.915 6.301201
66.920 6.296191
66.925 6.337869
66.930 6.594288
66.935 6.51614
66.940 6.277991
66.945 6.034104
66.950 6.04185
66.955 6.022324
66.960 5.929043
66.965 5.704026
66.970 5.679992
66.975 5.638359
66.980 5.931116
66.985 5.677816
66.990 5.529404
66.995 5.32737
67.000 5.017579
67.005 5.05469
67.010 5.395646
67.015 5.534372
67.020 5.758227
67.025 5.776151
67.030 5.937579
67.035 6.315918
67.040 6.167887
67.045 6.040675
67.050 5.400542
67.055 5.238264
67.060 5.616675
67.065 5.498218
67.070 5.179036
67.075 5.046095
67.080 5.218586
67.085 5.499306
67.090 5.754631
67.095 5.504344
67.100 5.471316
67.105 5.831387
67.110 5.899584
67.115 5.658749
67.120 5.406593
67.125 5.268503
67.130 5.153401
67.135 5.25152
67.140 5.132721
67.145 5.085824
67.150 5.225869
67.155 5.88109
67.160 6.256122
67.165 6.597768
67.170 6.813699
67.175 6.654918
67.180 6.761454
67.185 6.857627
67.190 6.484748
67.195 6.043035
67.200 5.499951
67.205 5.293181
67.210 5.088521
67.215 4.931098
67.220 4.798871
67.225 4.932596
67.230 5.01166
67.235 4.876758
67.240 4.934937
67.245 5.151032
67.250 5.105748
67.255 5.028385
67.260 4.961927
67.265 5.205492
67.270 5.324835
67.275 5.419086
67.280 5.511453
67.285 5.540864
67.290 5.662737
67.295 5.685784
67.300 5.526995
67.305 5.759091
67.310 5.752416
67.315 5.696638
67.320 5.664241
67.325 5.532025
67.330 5.577463
67.335 5.579313
67.340 5.411593
67.345 5.444044
67.350 5.563499
67.355 5.478271
67.360 5.604396
67.365 5.550277
67.370 5.841324
67.375 5.992256
67.380 5.995423
67.385 5.897996
67.390 6.209885
67.395 6.378396
67.400 6.153955
67.405 5.953883
67.410 5.940145
67.415 5.70655
67.420 5.588947
67.425 5.069417
67.430 4.912337
67.435 4.9314
67.440 4.841611
67.445 4.873755
67.450 5.167157
67.455 5.137782
67.460 5.668064
67.465 5.892042
67.470 6.006899
67.475 5.919253
67.480 5.684012
67.485 5.602571
67.490 5.679081
67.495 5.184745
67.500 5.173276
67.505 5.238153
67.510 5.425167
67.515 5.389739
67.520 5.2404
67.525 5.427398
67.530 5.851136
67.535 5.752097
67.540 5.56289
67.545 5.681569
67.550 5.995146
67.555 5.759054
67.560 5.574754
67.565 5.390892
67.570 5.531915
67.575 5.556547
67.580 5.705143
67.585 5.372128
67.590 5.344776
67.595 5.451232
67.600 5.40209
67.605 5.403134
67.610 5.368409
67.615 4.967968
67.620 5.541327
67.625 5.985959
67.630 5.940726
67.635 6.088284
67.640 6.178442
67.645 6.445307
67.650 6.451588
67.655 6.360317
67.660 6.071603
67.665 6.288312
67.670 6.323533
67.675 6.353413
67.680 6.257656
67.685 6.290001
67.690 6.196122
67.695 6.244977
67.700 6.032655
67.705 5.89145
67.710 5.588994
67.715 5.890953
67.720 6.054646
67.725 6.130646
67.730 5.987927
67.735 5.805888
67.740 5.701225
67.745 5.960164
67.750 5.592236
67.755 5.683935
67.760 5.710114
67.765 6.001215
67.770 5.932806
67.775 5.911836
67.780 5.811421
67.785 5.99692
67.790 5.684045
67.795 5.56455
67.800 5.591271
67.805 6.101963
67.810 6.126164
67.815 5.931132
67.820 5.772526
67.825 5.834864
67.830 5.590643
67.835 5.27131
67.840 5.061445
67.845 5.301291
67.850 5.202394
67.855 5.71882
67.860 6.145306
67.865 6.658639
67.870 6.910975
67.875 6.728793
67.880 6.722638
67.885 7.050405
67.890 6.832495
67.895 6.924272
67.900 6.921406
67.905 7.054343
67.910 7.194369
67.915 7.211093
67.920 7.231264
67.925 7.029006
67.930 6.833598
67.935 6.907846
67.940 6.81385
67.945 6.63006
67.950 6.537248
67.955 6.704206
67.960 6.773944
67.965 6.424932
67.970 6.087049
67.975 6.44426
67.980 6.416508
67.985 6.503782
67.990 5.87431
67.995 5.721745
68.000 5.697147
68.005 5.677969
68.010 5.449739
68.015 5.463739
68.020 5.551197
68.025 5.948847
68.030 6.376289
68.035 6.577835
68.040 6.411654
68.045 6.417834
68.050 6.579847
68.055 6.318412
68.060 6.181896
68.065 5.846812
68.070 5.86556
68.075 5.893572
68.080 5.722753
68.085 5.807081
68.090 6.074327
68.095 5.998512
68.100 6.08604
68.105 6.142182
68.110 6.06359
68.115 6.00289
68.120 5.690202
68.125 5.500829
68.130 5.647774
68.135 5.34632
68.140 5.261934
68.145 5.332458
68.150 5.699423
68.155 5.781053
68.160 5.898858
68.165 5.756711
68.170 5.902373
68.175 6.121287
68.180 6.020837
68.185 5.7541
68.190 5.676798
68.195 5.444961
68.200 5.270803
68.205 5.374542
68.210 5.376095
68.215 5.49867
68.220 5.437634
68.225 5.802468
68.230 5.894336
68.235 6.038718
68.240 5.964752
68.245 5.834452
68.250 5.858184
68.255 5.760891
68.260 5.753389
68.265 6.031246
68.270 6.237879
68.275 6.323251
68.280 6.495015
68.285 6.69125
68.290 6.868967
68.295 6.731732
68.300 6.462417
68.305 6.200998
68.310 6.224174
68.315 5.803003
68.320 5.780941
68.325 5.573532
68.330 5.328575
68.335 5.202276
68.340 5.15593
68.345 5.142453
68.350 5.207255
68.355 5.011691
68.360 5.301884
68.365 5.548624
68.370 5.514839
68.375 5.80802
68.380 5.801652
68.385 5.974571
68.390 5.980245
68.395 5.892414
68.400 5.834789
68.405 5.819308
68.410 5.427519
68.415 5.376188
68.420 5.668229
68.425 5.545053
68.430 5.507002
68.435 5.665022
68.440 5.92202
68.445 6.424827
68.450 6.49985
68.455 6.434649
68.460 6.255426
68.465 6.094641
68.470 6.085734
68.475 6.042758
68.480 6.03108
68.485 6.013486
68.490 5.706585
68.495 5.798127
68.500 6.028613
68.505 5.936522
68.510 5.6438
68.515 5.492646
68.520 5.432535
68.525 5.600419
68.530 5.652627
68.535 5.542508
68.540 5.61533
68.545 5.876922
68.550 5.724395
68.555 6.035397
68.560 6.148386
68.565 6.410139
68.570 6.528307
68.575 6.289771
68.580 6.096574
68.585 6.321639
68.590 6.291711
68.595 6.232382
68.600 6.166013
68.605 6.137743
68.610 6.083588
68.615 6.092971
68.620 5.62915
68.625 5.47395
68.630 5.288532
68.635 5.702776
68.640 5.900899
68.645 6.134225
68.650 6.074015
68.655 6.619293
68.660 6.493582
68.665 6.527654
68.670 6.156518
68.675 5.966115
68.680 6.180538
68.685 6.33989
68.690 6.509051
68.695 6.68697
68.700 6.665744
68.705 6.634244
68.710 7.088873
68.715 7.305832
68.720 7.45545
68.725 7.199902
68.730 7.327435
68.735 7.495197
68.740 7.394
68.745 6.754407
68.750 6.236677
68.755 5.936082
68.760 5.737943
68.765 5.74534
68.770 5.790882
68.775 5.958679
68.780 6.16803
68.785 6.28225
68.790 6.330159
68.795 6.467569
68.800 6.394022
68.805 6.709917
68.810 6.685849
68.815 6.660648
68.820 6.534278
68.825 6.732242
68.830 6.702838
68.835 6.556786
68.840 6.433983
68.845 6.385847
68.850 6.670443
68.855 6.760452
68.860 6.336353
68.865 6.054044
68.870 6.093081
68.875 5.760708
68.880 5.68467
68.885 5.564254
68.890 5.854419
68.895 6.24967
68.900 6.38186
68.905 6.371587
68.910 6.342137
68.915 6.529394
68.920 6.281253
68.925 6.139253
68.930 6.397136
68.935 6.505667
68.940 6.679572
68.945 6.537606
68.950 6.489831
68.955 6.489193
68.960 6.431746
68.965 6.235934
68.970 6.248899
68.975 6.035658
68.980 6.030567
68.985 5.99114
68.990 6.161084
68.995 6.014567
69.000 6.177935
69.005 6.02847
69.010 6.344723
69.015 6.709739
69.020 6.682446
69.025 6.403766
69.030 6.306101
69.035 6.342174
69.040 6.35718
69.045 6.32284
69.050 6.273851
69.055 6.384628
69.060 6.709941
69.065 6.843236
69.070 6.726956
69.075 7.00892
69.080 7.143012
69.085 7.212459
69.090 7.281052
69.095 7.412074
69.100 7.320957
69.105 7.647155
69.110 7.367071
69.115 7.060585
69.120 7.107112
69.125 6.920012
69.130 6.821207
69.135 6.732744
69.140 6.392971
69.145 6.391864
69.150 6.135774
69.155 6.106333
69.160 6.092872
69.165 6.299212
69.170 6.557821
69.175 5.935702
69.180 5.908446
69.185 6.135192
69.190 6.002535
69.195 6.09968
69.200 6.001066
69.205 5.813156
69.210 6.205599
69.215 6.337464
69.220 6.259879
69.225 6.17612
69.230 6.109197
69.235 5.977278
69.240 6.378241
69.245 6.419781
69.250 6.447652
69.255 6.602844
69.260 6.613135
69.265 6.717972
69.270 6.655143
69.275 6.640777
69.280 6.613757
69.285 6.217209
69.290 6.060033
69.295 6.090503
69.300 6.000982
69.305 6.070571
69.310 5.872012
69.315 5.920775
69.320 6.192785
69.325 6.188933
69.330 6.280851
69.335 6.246914
69.340 6.10477
69.345 6.265838
69.350 6.360528
69.355 6.85082
69.360 7.093479
69.365 7.018735
69.370 6.96685
69.375 7.088637
69.380 6.833716
69.385 6.735143
69.390 6.257125
69.395 6.192566
69.400 6.155257
69.405 5.942662
69.410 5.893258
69.415 6.030649
69.420 5.816393
69.425 5.559635
69.430 5.578484
69.435 5.432154
69.440 5.667901
69.445 5.695149
69.450 5.882033
69.455 5.914701
69.460 5.370482
69.465 5.162354
69.470 5.349422
69.475 5.604548
69.480 5.88358
69.485 5.797826
69.490 6.274666
69.495 6.836793
69.500 6.945779
69.505 7.113071
69.510 6.716821
69.515 6.628221
69.520 6.575818
69.525 6.156038
69.530 6.164253
69.535 5.986979
69.540 5.664431
69.545 5.703496
69.550 5.836787
69.555 6.077818
69.560 5.989251
69.565 5.843251
69.570 6.149587
69.575 6.228277
69.580 5.920416
69.585 5.373329
69.590 5.258952
69.595 5.667001
69.600 5.526464
69.605 5.309975
69.610 5.537232
69.615 5.75296
69.620 5.726471
69.625 5.632067
69.630 5.451013
69.635 5.733893
69.640 5.649486
69.645 5.371232
69.650 5.346139
69.655 5.681008
69.660 6.026196
69.665 6.003768
69.670 5.924686
69.675 5.847292
69.680 5.604901
69.685 5.867856
69.690 5.734181
69.695 5.618941
69.700 5.571066
69.705 5.80515
69.710 6.024362
69.715 6.323375
69.720 6.32521
69.725 6.256723
69.730 6.306216
69.735 6.216241
69.740 6.109652
69.745 6.154458
69.750 5.79652
69.755 5.716506
69.760 5.597076
69.765 5.568438
69.770 5.60481
69.775 5.652239
69.780 5.377051
69.785 5.448598
69.790 5.414977
69.795 5.166419
69.800 5.072638
69.805 4.911721
69.810 4.759871
69.815 5.151392
69.820 5.232146
69.825 5.528203
69.830 5.948345
69.835 5.898716
69.840 5.97526
69.845 6.270913
69.850 6.106998
69.855 6.173315
69.860 6.067996
69.865 5.765483
69.870 5.772042
69.875 5.663431
69.880 5.541986
69.885 5.612461
69.890 5.395391
69.895 5.514638
69.900 5.976931
69.905 6.109968
69.910 6.206688
69.915 6.348722
69.920 6.493327
69.925 6.611202
69.930 6.459074
69.935 6.548298
69.940 6.790546
69.945 6.937115
69.950 6.703938
69.955 6.740228
69.960 6.662404
69.965 6.515627
69.970 6.156653
69.975 6.151442
69.980 6.11134
69.985 6.324671
69.990 6.012364
69.995 6.248177
70.000 6.682264
70.005 7.015989
70.010 7.113788
70.015 6.939868
70.020 6.71021
70.025 7.216513
70.030 6.878639
70.035 6.683823
70.040 6.446524
70.045 6.187282
70.050 6.44568
70.055 6.420804
70.060 6.432742
70.065 6.962322
70.070 7.175244
70.075 7.462396
70.080 7.528636
70.085 7.368879
70.090 7.368202
70.095 7.064517
70.100 7.060382
70.105 6.819121
70.110 6.82889
70.115 6.852277
70.120 6.98895
70.125 7.073372
70.130 7.368895
70.135 7.622487
70.140 7.539548
70.145 7.068516
70.150 7.108763
70.155 6.985927
70.160 6.573319
70.165 5.77989
70.170 5.234356
70.175 5.306685
70.180 5.522693
70.185 5.293995
70.190 4.979384
70.195 5.096442
70.200 5.204712
70.205 5.585136
70.210 5.547875
70.215 5.489159
70.220 5.878488
70.225 6.302815
70.230 6.738921
70.235 6.979243
70.240 6.718616
70.245 6.936645
70.250 7.094444
70.255 6.958379
70.260 6.767867
70.265 6.518133
70.270 6.397523
70.275 6.601513
70.280 6.34236
70.285 6.397026
70.290 6.38418
70.295 6.45735
70.300 6.518928
70.305 6.846233
70.310 6.95918
70.315 7.024858
70.320 6.821766
70.325 7.038976
70.330 7.183785
70.335 6.890381
70.340 6.565143
70.345 6.738871
70.350 7.28479
70.355 7.195283
70.360 6.805171
70.365 7.070024
70.370 7.079289
70.375 6.909532
70.380 6.246303
70.385 5.541508
70.390 5.71912
70.395 5.712148
70.400 5.460523
70.405 5.512637
70.410 5.743116
70.415 6.396483
70.420 6.921634
70.425 6.945644
70.430 7.102689
70.435 6.996792
70.440 7.172973
70.445 7.290099
70.450 7.076818
70.455 7.069645
70.460 6.809742
70.465 6.921067
70.470 7.010462
70.475 6.705082
70.480 6.456319
70.485 6.454677
70.490 6.490564
70.495 6.885418
70.500 6.875042
70.505 6.977436
70.510 6.938323
70.515 6.798851
70.520 6.729291
70.525 6.80553
70.530 6.497188
70.535 6.202085
70.540 6.347091
70.545 6.298982
70.550 6.301504
70.555 5.987571
70.560 5.486613
70.565 5.698189
70.570 5.591643
70.575 5.393839
70.580 5.581203
70.585 5.708788
70.590 5.892342
70.595 6.02423
70.600 6.042243
70.605 6.040631
70.610 6.13152
70.615 6.0739
70.620 5.91434
70.625 5.927319
70.630 5.819875
70.635 5.911528
70.640 5.938415
70.645 6.100085
70.650 6.51771
70.655 6.842612
70.660 6.789279
70.665 7.093966
70.670 7.136642
70.675 6.880753
70.680 6.734829
70.685 6.359203
70.690 6.185472
70.695 6.127852
70.700 5.73469
70.705 5.49324
70.710 5.640842
70.715 5.451777
70.720 5.586684
70.725 5.613267
70.730 5.724197
70.735 5.847756
70.740 5.892457
70.745 5.824386
70.750 6.029685
70.755 6.055696
70.760 6.055242
70.765 6.163901
70.770 6.2607
70.775 6.314488
70.780 6.318701
70.785 6.301473
70.790 6.221762
70.795 6.515041
70.800 6.434962
70.805 6.767037
70.810 6.765162
70.815 6.535994
70.820 6.642121
70.825 6.07052
70.830 5.846744
70.835 5.703594
70.840 5.746173
70.845 6.019197
70.850 6.180907
70.855 6.413094
70.860 6.316522
70.865 6.333221
70.870 6.447565
70.875 6.202672
70.880 5.846496
70.885 5.57564
70.890 5.193589
70.895 5.424483
70.900 5.356357
70.905 5.314679
70.910 5.307757
70.915 5.479801
70.920 5.633688
70.925 5.581754
70.930 5.782739
70.935 6.026417
70.940 6.234829
70.945 6.446829
70.950 6.515743
70.955 6.59322
70.960 6.599038
70.965 6.338136
70.970 6.08861
70.975 6.007885
70.980 6.011052
70.985 6.164756
70.990 6.321108
70.995 6.5617
71.000 6.705856
71.005 6.753288
71.010 6.648561
71.015 6.391831
71.020 6.148733
71.025 6.071525
71.030 6.213452
71.035 6.288008
71.040 6.029223
71.045 6.068266
71.050 6.235894
71.055 6.333355
71.060 6.350825
71.065 5.975513
71.070 6.085558
71.075 6.171242
71.080 5.992546
71.085 6.16677
71.090 6.208049
71.095 6.495394
71.100 6.498776
71.105 6.265249
71.110 6.412896
71.115 6.562905
71.120 6.651261
71.125 6.317641
71.130 5.94755
71.135 6.126448
71.140 6.189909
71.145 6.284507
71.150 6.009067
71.155 5.91958
71.160 6.085182
71.165 6.395987
71.170 6.412554
71.175 6.750061
71.180 6.48499
71.185 6.404348
71.190 6.424487
71.195 5.961058
71.200 5.640381
71.205 5.521973
71.210 5.862155
71.215 6.141593
71.220 6.069507
71.225 5.887403
71.230 6.371674
71.235 6.400692
71.240 6.28297
71.245 6.153687
71.250 5.890339
71.255 6.03534
71.260 6.300996
71.265 6.395641
71.270 6.4681
71.275 6.248916
71.280 6.112508
71.285 6.486254
71.290 6.237321
71.295 5.851943
71.300 5.393746
71.305 5.326575
71.310 5.188741
71.315 5.062117
71.320 4.939361
71.325 4.942359
71.330 5.152842
71.335 5.415075
71.340 5.574823
71.345 5.636546
71.350 5.884042
71.355 6.321703
71.360 6.453847
71.365 6.42478
71.370 6.574134
71.375 6.720828
71.380 6.882126
71.385 6.559903
71.390 6.355574
71.395 6.258149
71.400 6.207157
71.405 6.12069
71.410 6.304248
71.415 6.180022
71.420 6.461212
71.425 6.372699
71.430 6.315171
71.435 6.23691
71.440 6.064621
71.445 6.086156
71.450 6.265557
71.455 6.259961
71.460 6.377476
71.465 6.498732
71.470 6.387379
71.475 6.422554
71.480 6.584436
71.485 6.47239
71.490 6.633541
71.495 6.652314
71.500 6.436633
71.505 6.289859
71.510 5.94495
71.515 5.612887
71.520 5.054245
71.525 4.664163
71.530 4.743614
71.535 5.266428
71.540 5.695852
71.545 5.7568
71.550 6.412814
71.555 6.661655
71.560 6.556399
71.565 6.440304
71.570 5.993438
71.575 5.796457
71.580 5.372783
71.585 4.866697
71.590 5.264385
71.595 5.568391
71.600 5.779698
71.605 5.906611
71.610 6.205997
71.615 6.357845
71.620 6.23629
71.625 5.78696
71.630 5.417663
71.635 5.674248
71.640 5.90061
71.645 5.621734
71.650 5.981136
71.655 6.081847
71.660 6.497087
71.665 7.006927
71.670 6.85361
71.675 7.021451
71.680 7.312015
71.685 7.221418
71.690 7.22664
71.695 6.656621
71.700 6.220477
71.705 5.855813
71.710 5.958268
71.715 5.794404
71.720 5.579998
71.725 5.62469
71.730 5.949836
71.735 5.973289
71.740 5.673713
71.745 5.789991
71.750 5.943432
71.755 6.219712
71.760 6.487288
71.765 6.489294
71.770 6.736947
71.775 7.082345
71.780 6.488908
71.785 6.334961
71.790 6.116298
71.795 5.684601
71.800 5.529767
71.805 5.410169
71.810 4.924511
71.815 4.887868
71.820 4.903317
71.825 4.817564
71.830 4.829684
71.835 4.89727
71.840 5.129396
71.845 5.519541
71.850 5.814828
71.855 5.831957
71.860 6.003912
71.865 6.119192
71.870 6.023336
71.875 5.900379
71.880 5.461998
71.885 5.209728
71.890 5.166003
71.895 5.35805
71.900 5.384938
71.905 5.569489
71.910 5.816467
71.915 5.916865
71.920 6.118568
71.925 5.869707
71.930 5.819627
71.935 5.840323
71.940 5.719055
71.945 5.172084
71.950 5.209399
71.955 5.34131
71.960 5.669117
71.965 5.562819
71.970 5.696293
71.975 5.983543
71.980 6.445502
71.985 6.20973
71.990 6.135847
71.995 6.089869
72.000 6.209463
72.005 6.19204
72.010 5.948019
72.015 5.930268
72.020 5.956305
72.025 5.83025
72.030 5.537082
72.035 5.305528
72.040 5.193647
72.045 5.333741
72.050 5.336779
72.055 5.394794
72.060 5.287554
72.065 5.142353
72.070 5.107544
72.075 5.086308
72.080 5.313324
72.085 5.134169
72.090 5.368973
72.095 5.654325
72.100 6.027715
72.105 6.214947
72.110 6.084635
72.115 6.015614
72.120 6.339794
72.125 6.42119
72.130 6.603513
72.135 6.318322
72.140 5.944795
72.145 6.238656
72.150 6.24597
72.155 6.074874
72.160 5.74948
72.165 5.597977
72.170 5.918304
72.175 6.03748
72.180 5.991381
72.185 5.984318
72.190 5.735729
72.195 6.126982
72.200 6.534732
72.205 6.78209
72.210 7.025852
72.215 6.499745
72.220 6.670301
72.225 6.716874
72.230 6.447172
72.235 5.986131
72.240 5.793236
72.245 5.666319
72.250 6.47868
72.255 6.687081
72.260 6.622815
72.265 6.399144
72.270 6.313208
72.275 6.472124
72.280 6.345091
72.285 5.763322
72.290 5.81725
72.295 6.042081
72.300 6.383957
72.305 6.630737
72.310 6.653369
72.315 7.043106
72.320 6.960043
72.325 6.917592
72.330 6.59274
72.335 6.450541
72.340 6.284796
72.345 6.17149
72.350 5.902379
72.355 5.802877
72.360 5.593266
72.365 5.865845
72.370 5.863622
72.375 6.047467
72.380 6.424442
72.385 6.162256
72.390 6.543014
72.395 6.815221
72.400 6.539406
72.405 6.433788
72.410 6.340956
72.415 6.033883
72.420 6.182543
72.425 5.65221
72.430 5.562693
72.435 5.317096
72.440 5.27061
72.445 5.137339
72.450 5.304453
72.455 5.248985
72.460 5.520633
72.465 5.574728
72.470 6.080995
72.475 6.025047
72.480 6.262721
72.485 6.527511
72.490 6.35561
72.495 6.133979
72.500 6.222336
72.505 6.152355
72.510 6.225126
72.515 6.210295
72.520 6.602132
72.525 7.112702
72.530 7.109677
72.535 6.848397
72.540 7.069745
72.545 7.260777
72.550 7.112922
72.555 6.780356
72.560 6.57678
72.565 6.443038
72.570 6.245714
72.575 5.924854
72.580 5.638068
72.585 5.729414
72.590 6.359751
72.595 6.846045
72.600 7.206019
72.605 7.335799
72.610 7.144182
72.615 7.216462
72.620 6.776933
72.625 6.622346
72.630 6.447224
72.635 6.418001
72.640 6.712591
72.645 7.091971
72.650 6.881879
72.655 6.338059
72.660 6.199566
72.665 6.494168
72.670 6.401548
72.675 6.320244
72.680 6.172576
72.685 6.408974
72.690 6.869232
72.695 6.527308
72.700 6.307079
72.705 6.298963
72.710 5.989536
72.715 6.02483
72.720 5.973833
72.725 5.558816
72.730 5.835388
72.735 6.294757
72.740 6.433881
72.745 6.551511
72.750 6.369944
72.755 6.936735
72.760 6.696432
72.765 6.202573
72.770 5.678479
72.775 5.587003
72.780 5.397173
72.785 5.388102
72.790 4.955168
72.795 5.400461
72.800 5.668676
72.805 6.07036
72.810 6.29053
72.815 6.412938
72.820 6.652391
72.825 7.561939
72.830 7.433235
72.835 7.455976
72.840 7.254984
72.845 7.194515
72.850 6.743498
72.855 6.232573
72.860 6.022859
72.865 5.88857
72.870 5.722677
72.875 5.575097
72.880 5.867521
72.885 6.236793
72.890 6.111326
72.895 6.248633
72.900 6.491216
72.905 6.150787
72.910 6.002873
72.915 6.100211
72.920 5.875351
72.925 5.559818
72.930 5.605573
72.935 5.56159
72.940 5.989673
72.945 6.240213
72.950 6.172438
72.955 6.21642
72.960 6.315742
72.965 6.212489
72.970 6.350933
72.975 6.592267
72.980 6.064794
72.985 6.321415
72.990 6.417515
72.995 6.202765
73.000 5.948181
