!@!!GADDS PLOTSO FILE: Chi integration type
!@!!Title/SampleName: map-118
!@!!Comment: ?
!@!!User: Bruker Instrument Administrator
!@!!Site: University of Illinois Chicago
!@!!Frame: map-118_01_000.gfrm
!@!!Wavelengths    1.54184   1.54056   1.54439
!@!!Frame angles: 2Theta: 63.000 Omega: 50.000 Phi: 0.000 Chi: 90.000
!@!!Integration range: 2Theta: 53.000 to 73.000  Gamma: -105.000 to -75.000
!@!!Integration method: bin normalized
!@!N
!@!SS
!@!M
!@!L 0.0 0.0 0.0 0.0
!@!XDegrees
!@!YCounts
53.000 7.922877
53.005 7.731983
53.010 7.348463
53.015 6.840648
53.020 6.983587
53.025 7.12369
53.030 7.244741
53.035 7.059486
53.040 7.195763
53.045 7.635386
53.050 7.897387
53.055 7.412197
53.060 7.057038
53.065 7.095182
53.070 6.905626
53.075 6.788059
53.080 6.400177
53.085 6.642075
53.090 6.991415
53.095 7.174807
53.100 7.764739
53.105 7.993961
53.110 8.270222
53.115 8.376594
53.120 8.078289
53.125 8.479901
53.130 8.513518
53.135 8.467315
53.140 8.416608
53.145 8.179864
53.150 8.355662
53.155 8.557257
53.160 8.156147
53.165 7.793568
53.170 7.953698
53.175 8.01052
53.180 7.892864
53.185 7.50503
53.190 7.212395
53.195 7.477264
53.200 7.189938
53.205 6.857903
53.210 6.785582
53.215 7.264672
53.220 7.634699
53.225 7.87562
53.230 7.955979
53.235 7.999519
53.240 8.067097
53.245 8.111841
53.250 7.548111
53.255 7.424982
53.260 7.301689
53.265 6.971581
53.270 6.955675
53.275 6.899795
53.280 7.095331
53.285 7.436932
53.290 7.071664
53.295 6.905222
53.300 6.927085
53.305 7.489171
53.310 7.54153
53.315 7.717994
53.320 7.622002
53.325 7.452201
53.330 7.664029
53.335 7.530181
53.340 7.245613
53.345 7.40238
53.350 6.860221
53.355 7.066279
53.360 7.452425
53.365 7.270426
53.370 7.239776
53.375 6.891011
53.380 6.851825
53.385 7.448331
53.390 7.700392
53.395 7.717328
53.400 7.947122
53.405 8.122621
53.410 8.471666
53.415 8.404483
53.420 8.536464
53.425 8.459145
53.430 8.820396
53.435 9.005019
53.440 9.19589
53.445 9.068435
53.450 9.368094
53.455 9.223072
53.460 8.937434
53.465 8.646621
53.470 8.284232
53.475 7.688788
53.480 7.198516
53.485 6.443189
53.490 6.38761
53.495 6.413345
53.500 6.835029
53.505 6.844034
53.510 7.057384
53.515 7.612154
53.520 7.961903
53.525 8.157977
53.530 7.81425
53.535 7.87736
53.540 8.011436
53.545 8.016457
53.550 8.178316
53.555 8.133265
53.560 7.991487
53.565 8.067334
53.570 7.974241
53.575 7.868947
53.580 7.919158
53.585 8.051071
53.590 8.252328
53.595 8.297701
53.600 8.483135
53.605 8.875101
53.610 8.918658
53.615 8.406343
53.620 8.444078
53.625 8.673365
53.630 8.539173
53.635 8.410268
53.640 8.179655
53.645 8.421492
53.650 8.465399
53.655 7.615915
53.660 7.144695
53.665 7.210886
53.670 7.090937
53.675 6.98629
53.680 6.950117
53.685 6.967933
53.690 7.724677
53.695 8.047761
53.700 8.104911
53.705 8.158491
53.710 8.473803
53.715 8.690916
53.720 8.873391
53.725 8.833138
53.730 9.141432
53.735 9.202775
53.740 9.456903
53.745 9.467081
53.750 9.581248
53.755 9.755649
53.760 9.905404
53.765 9.764779
53.770 9.375162
53.775 9.108269
53.780 8.76356
53.785 8.514766
53.790 8.555921
53.795 7.986159
53.800 7.857351
53.805 8.267707
53.810 8.468421
53.815 8.661303
53.820 8.744321
53.825 8.803657
53.830 9.307911
53.835 9.48797
53.840 9.25569
53.845 9.273434
53.850 9.486909
53.855 9.277873
53.860 9.083101
53.865 9.184349
53.870 9.303686
53.875 10.018015
53.880 10.236296
53.885 10.163025
53.890 10.329498
53.895 10.29896
53.900 10.038835
53.905 9.786526
53.910 9.288359
53.915 8.97004
53.920 8.79123
53.925 8.333985
53.930 7.984138
53.935 8.144607
53.940 8.058837
53.945 8.162051
53.950 8.424217
53.955 8.778953
53.960 8.98197
53.965 9.189711
53.970 8.903237
53.975 8.825906
53.980 8.733541
53.985 8.397001
53.990 7.84525
53.995 8.556122
54.000 8.476002
54.005 8.343818
54.010 8.337254
54.015 8.509405
54.020 8.280511
54.025 8.53469
54.030 7.696753
54.035 7.219874
54.040 7.175057
54.045 7.202611
54.050 7.004574
54.055 7.1866
54.060 6.99258
54.065 7.053082
54.070 7.422072
54.075 7.262912
54.080 7.18999
54.085 7.225654
54.090 7.225231
54.095 7.443922
54.100 8.073405
54.105 8.262237
54.110 8.378626
54.115 8.399818
54.120 8.36388
54.125 8.338729
54.130 8.494348
54.135 7.977122
54.140 7.684858
54.145 7.673812
54.150 7.314043
54.155 7.303927
54.160 7.136742
54.165 6.979267
54.170 7.187968
54.175 7.606643
54.180 7.845244
54.185 8.015532
54.190 8.60719
54.195 8.844666
54.200 9.005736
54.205 9.132423
54.210 8.781268
54.215 8.864125
54.220 8.710204
54.225 8.401266
54.230 8.850039
54.235 8.805021
54.240 9.001881
54.245 8.791704
54.250 8.939124
54.255 8.718171
54.260 8.817101
54.265 8.315439
54.270 8.080966
54.275 7.785535
54.280 8.012352
54.285 8.446022
54.290 8.406078
54.295 8.078753
54.300 8.056517
54.305 8.246183
54.310 8.361477
54.315 7.82659
54.320 7.510661
54.325 7.423339
54.330 7.322395
54.335 7.394473
54.340 7.198866
54.345 7.387075
54.350 7.732937
54.355 7.628806
54.360 7.846115
54.365 8.180532
54.370 8.216456
54.375 8.690642
54.380 8.367517
54.385 8.106288
54.390 8.30453
54.395 8.250792
54.400 8.290337
54.405 8.140214
54.410 7.773874
54.415 8.210756
54.420 8.314585
54.425 8.577876
54.430 8.528165
54.435 8.503192
54.440 9.126376
54.445 9.290095
54.450 9.396746
54.455 9.496525
54.460 9.418054
54.465 9.681623
54.470 9.382338
54.475 9.286922
54.480 9.344634
54.485 9.215702
54.490 9.369383
54.495 9.2551
54.500 8.819699
54.505 8.709702
54.510 8.576777
54.515 8.412204
54.520 8.115008
54.525 7.630059
54.530 7.615283
54.535 7.863318
54.540 7.950437
54.545 7.681782
54.550 7.392881
54.555 7.174778
54.560 7.576122
54.565 7.413909
54.570 7.164737
54.575 7.243161
54.580 7.469877
54.585 8.024185
54.590 8.559361
54.595 8.723772
54.600 8.997381
54.605 9.287362
54.610 9.0365
54.615 8.712136
54.620 8.604713
54.625 8.232838
54.630 7.753261
54.635 7.405314
54.640 7.135067
54.645 6.654002
54.650 6.656414
54.655 6.378009
54.660 6.496688
54.665 6.673929
54.670 6.813713
54.675 6.608165
54.680 7.182387
54.685 7.410696
54.690 7.652781
54.695 7.9284
54.700 8.027577
54.705 8.422618
54.710 9.154964
54.715 9.205614
54.720 9.442453
54.725 8.998751
54.730 8.696321
54.735 8.735646
54.740 8.634898
54.745 8.585322
54.750 8.51686
54.755 8.531807
54.760 9.05907
54.765 8.895129
54.770 8.530863
54.775 8.211012
54.780 8.270496
54.785 8.696063
54.790 8.586513
54.795 8.569007
54.800 8.792264
54.805 8.866425
54.810 9.163457
54.815 9.014447
54.820 8.643013
54.825 8.943464
54.830 8.923244
54.835 8.794159
54.840 8.883943
54.845 8.630713
54.850 8.618021
54.855 8.563487
54.860 8.175104
54.865 8.124306
54.870 8.093431
54.875 8.327854
54.880 8.702827
54.885 8.726563
54.890 8.607077
54.895 9.004297
54.900 9.128143
54.905 8.968573
54.910 9.093096
54.915 8.860128
54.920 8.5407
54.925 8.91748
54.930 8.719964
54.935 8.852789
54.940 9.038755
54.945 8.909099
54.950 9.308645
54.955 9.700228
54.960 9.426702
54.965 9.526505
54.970 9.694164
54.975 9.984167
54.980 10.089432
54.985 9.664383
54.990 9.555173
54.995 9.501194
55.000 9.48002
55.005 9.078803
55.010 8.951328
55.015 9.031816
55.020 9.393661
55.025 9.428498
55.030 9.203701
55.035 9.306887
55.040 9.10584
55.045 8.895314
55.050 8.616869
55.055 8.451388
55.060 8.834431
55.065 9.497806
55.070 9.802459
55.075 9.876348
55.080 9.987954
55.085 10.313468
55.090 10.217782
55.095 10.037091
55.100 9.373311
55.105 9.350513
55.110 9.456894
55.115 8.872835
55.120 8.887502
55.125 8.760886
55.130 8.791427
55.135 9.053359
55.140 8.999825
55.145 8.81019
55.150 8.743711
55.155 8.471823
55.160 8.34305
55.165 8.05292
55.170 7.953126
55.175 7.836783
55.180 7.942341
55.185 8.015978
55.190 8.335281
55.195 8.723801
55.200 8.849287
55.205 8.819325
55.210 9.044557
55.215 9.483597
55.220 9.817429
55.225 9.713836
55.230 9.607466
55.235 9.394569
55.240 9.11392
55.245 9.336864
55.250 9.355842
55.255 9.1685
55.260 8.777061
55.265 8.525185
55.270 9.143861
55.275 9.266054
55.280 8.716327
55.285 8.396464
55.290 8.165042
55.295 8.109727
55.300 8.192227
55.305 8.238183
55.310 8.652902
55.315 8.786094
55.320 8.915467
55.325 9.429572
55.330 9.404622
55.335 9.399783
55.340 9.228703
55.345 9.14964
55.350 9.742474
55.355 10.378855
55.360 10.486228
55.365 10.903824
55.370 10.891177
55.375 10.903687
55.380 11.174548
55.385 10.630457
55.390 10.000998
55.395 9.720837
55.400 9.251801
55.405 8.819373
55.410 8.536432
55.415 7.948353
55.420 7.757534
55.425 7.650901
55.430 7.677378
55.435 8.055235
55.440 8.297422
55.445 8.467762
55.450 8.818846
55.455 9.023379
55.460 9.192446
55.465 9.005251
55.470 9.193212
55.475 9.292643
55.480 8.926526
55.485 8.945942
55.490 9.027112
55.495 8.997552
55.500 8.967431
55.505 8.975177
55.510 8.850984
55.515 9.070441
55.520 8.793033
55.525 8.832199
55.530 8.963367
55.535 9.093452
55.540 9.079218
55.545 9.086342
55.550 9.307335
55.555 9.346509
55.560 9.04721
55.565 8.963375
55.570 8.553885
55.575 8.156784
55.580 7.889467
55.585 7.887478
55.590 7.852414
55.595 7.674381
55.600 7.045008
55.605 7.191282
55.610 7.692554
55.615 7.717083
55.620 7.643003
55.625 7.409126
55.630 7.316865
55.635 7.678681
55.640 8.079971
55.645 7.60114
55.650 7.432014
55.655 7.206758
55.660 7.810272
55.665 8.278527
55.670 8.144103
55.675 8.126393
55.680 8.326451
55.685 8.473906
55.690 8.636782
55.695 8.149229
55.700 8.357968
55.705 8.419474
55.710 7.873834
55.715 7.997286
55.720 7.980563
55.725 8.089312
55.730 8.382252
55.735 8.362291
55.740 8.308577
55.745 8.469896
55.750 8.176914
55.755 8.276469
55.760 8.572371
55.765 8.341735
55.770 8.45054
55.775 8.545855
55.780 8.55813
55.785 8.375035
55.790 8.074708
55.795 7.744235
55.800 7.770043
55.805 7.937848
55.810 7.981551
55.815 8.434422
55.820 8.926517
55.825 8.891793
55.830 8.898679
55.835 9.126452
55.840 8.580718
55.845 8.416842
55.850 8.329155
55.855 8.316299
55.860 8.368201
55.865 8.47953
55.870 8.232889
55.875 8.628352
55.880 9.078329
55.885 9.083795
55.890 9.192739
55.895 9.096771
55.900 9.120628
55.905 9.203942
55.910 9.210148
55.915 8.91387
55.920 8.633789
55.925 8.57216
55.930 8.794264
55.935 9.058691
55.940 8.646691
55.945 8.398
55.950 8.132249
55.955 8.758331
55.960 8.83526
55.965 8.634316
55.970 8.34008
55.975 8.557715
55.980 8.731104
55.985 8.455851
55.990 7.713431
55.995 7.484525
56.000 7.464871
56.005 7.585664
56.010 7.918688
56.015 7.949819
56.020 8.536527
56.025 9.027355
56.030 9.368539
56.035 9.405333
56.040 9.09023
56.045 8.641199
56.050 8.726917
56.055 8.399469
56.060 8.203616
56.065 8.293767
56.070 8.140566
56.075 8.703686
56.080 9.315217
56.085 9.393188
56.090 9.144556
56.095 9.362527
56.100 9.259915
56.105 9.210459
56.110 8.690249
56.115 8.483495
56.120 8.709693
56.125 9.00561
56.130 8.655293
56.135 8.267977
56.140 8.274191
56.145 8.41855
56.150 8.232413
56.155 8.429735
56.160 8.529615
56.165 8.679834
56.170 9.153985
56.175 9.415602
56.180 9.056132
56.185 8.721664
56.190 8.007686
56.195 7.750409
56.200 8.146721
56.205 8.172393
56.210 8.20401
56.215 8.351686
56.220 8.75558
56.225 9.312042
56.230 9.438978
56.235 8.904483
56.240 9.036562
56.245 9.251942
56.250 9.616052
56.255 9.314095
56.260 9.010486
56.265 9.208541
56.270 9.681616
56.275 9.661461
56.280 9.365632
56.285 9.308135
56.290 9.95392
56.295 10.235999
56.300 10.008127
56.305 9.554983
56.310 9.473452
56.315 9.298668
56.320 9.188813
56.325 8.861344
56.330 8.759692
56.335 8.993841
56.340 9.284261
56.345 9.064658
56.350 9.249247
56.355 9.242458
56.360 9.149298
56.365 9.055659
56.370 8.929485
56.375 8.987318
56.380 9.327747
56.385 9.313441
56.390 9.526622
56.395 9.537991
56.400 9.49705
56.405 9.263467
56.410 9.213342
56.415 9.102345
56.420 9.165958
56.425 9.134871
56.430 9.439217
56.435 9.568489
56.440 9.607561
56.445 9.939103
56.450 10.343643
56.455 10.282886
56.460 10.703831
56.465 10.401632
56.470 10.450533
56.475 10.578094
56.480 10.454074
56.485 10.195995
56.490 10.727295
56.495 10.411694
56.500 10.632359
56.505 10.579533
56.510 10.471742
56.515 10.617099
56.520 10.799949
56.525 10.532569
56.530 10.54695
56.535 10.742656
56.540 11.075741
56.545 11.318885
56.550 11.186634
56.555 10.816643
56.560 10.566667
56.565 10.141865
56.570 9.686708
56.575 9.558678
56.580 9.830879
56.585 10.027687
56.590 9.978358
56.595 10.19577
56.600 10.494015
56.605 10.633703
56.610 10.088802
56.615 9.621032
56.620 9.444381
56.625 9.431603
56.630 9.319874
56.635 9.093173
56.640 9.182946
56.645 9.360037
56.650 9.667919
56.655 9.993786
56.660 9.722037
56.665 9.895947
56.670 10.081629
56.675 10.160782
56.680 10.05757
56.685 9.657263
56.690 9.693843
56.695 10.087193
56.700 10.225892
56.705 10.253709
56.710 10.236354
56.715 10.360804
56.720 10.30232
56.725 10.207138
56.730 10.189992
56.735 10.372725
56.740 10.622612
56.745 10.459477
56.750 10.386273
56.755 10.448657
56.760 10.06277
56.765 9.323199
56.770 9.205894
56.775 9.263721
56.780 9.393545
56.785 9.109324
56.790 8.958943
56.795 9.42192
56.800 9.90494
56.805 9.582942
56.810 9.227291
56.815 9.130644
56.820 9.316929
56.825 9.285922
56.830 9.036323
56.835 9.234641
56.840 9.569893
56.845 9.945006
56.850 10.048744
56.855 9.984365
56.860 10.239195
56.865 9.942053
56.870 9.74562
56.875 9.324424
56.880 9.403633
56.885 9.571411
56.890 9.84791
56.895 9.900743
56.900 9.813088
56.905 9.549011
56.910 9.58328
56.915 9.080839
56.920 8.673631
56.925 8.568278
56.930 8.82672
56.935 8.910378
56.940 8.948746
56.945 8.981067
56.950 9.062628
56.955 9.124338
56.960 8.810182
56.965 8.640333
56.970 8.739962
56.975 8.254474
56.980 8.080381
56.985 8.248889
56.990 7.972049
56.995 8.037951
57.000 7.915408
57.005 7.761549
57.010 8.102427
57.015 8.160671
57.020 8.08556
57.025 8.215517
57.030 8.254355
57.035 8.453932
57.040 8.815379
57.045 8.798563
57.050 8.526344
57.055 8.327505
57.060 8.330811
57.065 8.045665
57.070 7.833923
57.075 7.607215
57.080 7.454466
57.085 7.524737
57.090 7.472831
57.095 7.433824
57.100 7.716245
57.105 7.674591
57.110 7.677896
57.115 7.563004
57.120 7.693597
57.125 8.034216
57.130 8.056568
57.135 8.143497
57.140 8.345937
57.145 7.958753
57.150 8.448199
57.155 8.364404
57.160 8.010853
57.165 8.058931
57.170 8.18555
57.175 7.937157
57.180 8.031069
57.185 7.569135
57.190 7.361141
57.195 7.488553
57.200 7.011067
57.205 6.903488
57.210 7.432604
57.215 7.469175
57.220 7.483991
57.225 7.583995
57.230 7.855191
57.235 7.956483
57.240 8.086345
57.245 7.594724
57.250 7.842153
57.255 8.238501
57.260 8.139037
57.265 8.142602
57.270 8.301858
57.275 8.476063
57.280 8.782215
57.285 8.473926
57.290 8.545843
57.295 8.558558
57.300 8.29239
57.305 8.218796
57.310 8.077435
57.315 7.583456
57.320 8.027226
57.325 7.978538
57.330 8.344645
57.335 8.876587
57.340 8.830484
57.345 8.735558
57.350 8.764307
57.355 8.704052
57.360 8.854508
57.365 8.659288
57.370 8.354366
57.375 8.596253
57.380 9.095035
57.385 9.835546
57.390 10.122206
57.395 10.337736
57.400 10.571836
57.405 10.57041
57.410 10.20734
57.415 9.689409
57.420 9.525979
57.425 8.907338
57.430 8.329832
57.435 8.201999
57.440 8.49977
57.445 8.75388
57.450 8.802229
57.455 8.551073
57.460 8.900455
57.465 8.921719
57.470 8.742879
57.475 8.565702
57.480 8.635406
57.485 8.906931
57.490 9.020816
57.495 8.73396
57.500 8.821635
57.505 8.57807
57.510 8.359873
57.515 8.104353
57.520 7.938698
57.525 7.827244
57.530 7.964057
57.535 8.236074
57.540 8.576618
57.545 8.765552
57.550 8.99891
57.555 9.073772
57.560 8.904722
57.565 9.047011
57.570 8.81715
57.575 8.873124
57.580 8.908998
57.585 8.761079
57.590 9.078877
57.595 8.993992
57.600 8.99669
57.605 9.063943
57.610 8.731016
57.615 8.701542
57.620 8.916796
57.625 8.806111
57.630 9.014966
57.635 8.98061
57.640 8.748038
57.645 8.77631
57.650 8.659486
57.655 8.344017
57.660 8.107267
57.665 7.430207
57.670 7.262817
57.675 7.368794
57.680 7.454296
57.685 7.393092
57.690 7.358212
57.695 7.405661
57.700 7.594634
57.705 7.476368
57.710 7.415613
57.715 7.450051
57.720 7.471212
57.725 7.735888
57.730 7.973043
57.735 8.507591
57.740 9.219789
57.745 9.37631
57.750 9.321231
57.755 9.296182
57.760 9.390036
57.765 9.449117
57.770 8.876374
57.775 8.36047
57.780 8.1151
57.785 7.770447
57.790 7.695248
57.795 7.848709
57.800 7.546391
57.805 7.601946
57.810 7.5675
57.815 7.576556
57.820 8.051793
57.825 8.068731
57.830 7.865815
57.835 8.149984
57.840 8.463701
57.845 8.809086
57.850 8.630712
57.855 8.372375
57.860 8.334471
57.865 8.201239
57.870 8.248457
57.875 8.288408
57.880 7.921322
57.885 8.275425
57.890 8.348405
57.895 8.199672
57.900 8.83991
57.905 9.404803
57.910 9.292116
57.915 9.308431
57.920 9.385353
57.925 9.697855
57.930 9.623579
57.935 9.127462
57.940 8.883668
57.945 9.031056
57.950 9.167844
57.955 8.991322
57.960 8.717037
57.965 8.679517
57.970 8.64717
57.975 8.614525
57.980 8.578388
57.985 8.651607
57.990 8.477164
57.995 8.731812
58.000 8.765057
58.005 8.409893
58.010 8.363292
58.015 8.512691
58.020 8.481336
58.025 8.98657
58.030 9.033102
58.035 9.304002
58.040 9.50077
58.045 9.36568
58.050 9.031335
58.055 9.033369
58.060 8.687258
58.065 8.985929
58.070 8.741199
58.075 8.430386
58.080 8.210886
58.085 8.17058
58.090 8.221198
58.095 8.34402
58.100 8.454917
58.105 8.851015
58.110 9.364109
58.115 9.524409
58.120 9.368426
58.125 9.20143
58.130 8.947241
58.135 8.472465
58.140 8.259671
58.145 7.999848
58.150 8.039209
58.155 8.447024
58.160 8.337286
58.165 8.337195
58.170 8.252291
58.175 7.974223
58.180 7.676727
58.185 7.734629
58.190 7.544656
58.195 7.514409
58.200 7.450594
58.205 7.783792
58.210 8.014798
58.215 8.476292
58.220 8.341231
58.225 8.576557
58.230 8.621749
58.235 8.350795
58.240 8.148232
58.245 8.070926
58.250 8.291886
58.255 8.356427
58.260 8.299781
58.265 8.539166
58.270 8.985044
58.275 9.405151
58.280 9.23847
58.285 8.885672
58.290 8.815535
58.295 8.650463
58.300 8.465598
58.305 8.508607
58.310 8.060498
58.315 7.676703
58.320 7.694849
58.325 7.829959
58.330 7.971214
58.335 8.037744
58.340 8.125211
58.345 8.503221
58.350 9.025174
58.355 9.061727
58.360 8.908673
58.365 8.970111
58.370 8.995225
58.375 8.32839
58.380 7.840284
58.385 7.635
58.390 7.632053
58.395 7.552117
58.400 7.583751
58.405 7.320648
58.410 7.431124
58.415 7.425075
58.420 7.296532
58.425 7.083445
58.430 7.006775
58.435 6.928591
58.440 7.566381
58.445 7.98914
58.450 8.371704
58.455 8.804558
58.460 9.461637
58.465 9.874575
58.470 9.964395
58.475 9.628645
58.480 9.685708
58.485 9.569945
58.490 9.690161
58.495 9.372421
58.500 9.111565
58.505 9.116129
58.510 9.235098
58.515 8.950873
58.520 8.838761
58.525 8.709299
58.530 8.994148
58.535 8.987077
58.540 9.212748
58.545 9.134033
58.550 9.428955
58.555 9.804763
58.560 9.590926
58.565 9.423215
58.570 9.514245
58.575 9.543633
58.580 9.454587
58.585 9.339578
58.590 9.356017
58.595 9.392627
58.600 9.238628
58.605 8.981601
58.610 9.005611
58.615 9.20924
58.620 9.125243
58.625 8.889791
58.630 9.298745
58.635 9.344881
58.640 9.291489
58.645 8.80671
58.650 8.534161
58.655 8.414546
58.660 8.520656
58.665 8.200957
58.670 8.227898
58.675 8.381062
58.680 8.513774
58.685 8.448453
58.690 8.576589
58.695 8.648482
58.700 8.647788
58.705 8.980213
58.710 9.053758
58.715 9.205249
58.720 9.503878
58.725 9.726756
58.730 9.898299
58.735 9.935955
58.740 9.815049
58.745 9.835365
58.750 9.978374
58.755 10.097904
58.760 10.146843
58.765 9.896147
58.770 10.560225
58.775 10.285666
58.780 9.738002
58.785 9.155246
58.790 8.615126
58.795 8.376764
58.800 8.461789
58.805 8.006699
58.810 8.53111
58.815 9.246367
58.820 10.274251
58.825 10.930682
58.830 10.890402
58.835 10.447099
58.840 10.178956
58.845 9.810609
58.850 9.507901
58.855 8.85227
58.860 8.674595
58.865 8.96091
58.870 9.158162
58.875 9.217412
58.880 9.36232
58.885 9.815377
58.890 10.226726
58.895 10.000126
58.900 9.756596
58.905 9.51695
58.910 9.699823
58.915 9.774354
58.920 9.707124
58.925 9.255968
58.930 9.366085
58.935 9.295114
58.940 9.452604
58.945 9.110782
58.950 8.884312
58.955 8.557017
58.960 8.770346
58.965 9.010137
58.970 9.078824
58.975 9.442769
58.980 9.543685
58.985 9.376459
58.990 8.890014
58.995 8.747468
59.000 8.469534
59.005 8.455658
59.010 8.183659
59.015 8.098619
59.020 8.356269
59.025 8.525101
59.030 8.206816
59.035 8.327168
59.040 8.427761
59.045 8.477885
59.050 8.982996
59.055 8.698614
59.060 8.826834
59.065 9.571724
59.070 9.609774
59.075 9.511107
59.080 9.767331
59.085 9.422723
59.090 9.287638
59.095 8.632876
59.100 7.80648
59.105 7.528681
59.110 7.942009
59.115 8.178158
59.120 8.450199
59.125 9.009241
59.130 10.059115
59.135 10.66484
59.140 10.501647
59.145 9.64488
59.150 9.021304
59.155 8.522808
59.160 8.218786
59.165 7.815496
59.170 7.973921
59.175 8.212313
59.180 8.875355
59.185 9.130081
59.190 9.46508
59.195 9.394265
59.200 9.31725
59.205 8.894096
59.210 8.926581
59.215 8.471552
59.220 8.312286
59.225 7.864895
59.230 7.891729
59.235 7.82996
59.240 8.069036
59.245 8.26553
59.250 8.000809
59.255 8.137086
59.260 8.905771
59.265 9.069565
59.270 9.115816
59.275 8.984358
59.280 8.836637
59.285 9.324696
59.290 9.309264
59.295 8.940441
59.300 9.062713
59.305 9.175152
59.310 9.382743
59.315 9.133228
59.320 8.968663
59.325 8.921376
59.330 8.98365
59.335 8.88833
59.340 8.836132
59.345 8.994838
59.350 9.016522
59.355 8.756471
59.360 8.918748
59.365 8.40226
59.370 8.305536
59.375 8.157945
59.380 7.978906
59.385 8.208516
59.390 8.760055
59.395 8.956029
59.400 9.091149
59.405 8.721351
59.410 8.506689
59.415 8.445119
59.420 8.385736
59.425 8.073141
59.430 7.795798
59.435 8.003637
59.440 8.228899
59.445 8.424191
59.450 8.394556
59.455 8.383183
59.460 8.40775
59.465 8.613631
59.470 8.488012
59.475 8.45133
59.480 8.214999
59.485 8.149002
59.490 8.588551
59.495 8.759419
59.500 8.412929
59.505 8.189081
59.510 8.077941
59.515 8.125551
59.520 8.536896
59.525 7.961631
59.530 7.336652
59.535 7.596885
59.540 8.101449
59.545 8.071335
59.550 8.174679
59.555 7.964988
59.560 8.64561
59.565 9.286153
59.570 9.03325
59.575 8.900525
59.580 9.008747
59.585 8.87712
59.590 9.031546
59.595 8.475685
59.600 8.391563
59.605 8.398521
59.610 8.589342
59.615 9.139984
59.620 9.162225
59.625 9.459997
59.630 9.497411
59.635 8.863288
59.640 8.872989
59.645 8.6723
59.650 8.128716
59.655 7.963191
59.660 7.499501
59.665 7.454929
59.670 7.777183
59.675 8.022405
59.680 7.977042
59.685 8.320053
59.690 8.589041
59.695 9.131248
59.700 10.042987
59.705 9.94917
59.710 9.902397
59.715 10.064074
59.720 9.655167
59.725 9.318314
59.730 8.48755
59.735 7.861997
59.740 8.391192
59.745 8.263889
59.750 8.260504
59.755 8.815073
59.760 8.585348
59.765 8.798261
59.770 8.65414
59.775 8.735895
59.780 9.127603
59.785 9.656084
59.790 9.928601
59.795 10.643571
59.800 10.61811
59.805 10.457974
59.810 10.086531
59.815 9.914863
59.820 9.613377
59.825 9.435228
59.830 9.247473
59.835 9.222353
59.840 9.599881
59.845 9.467155
59.850 9.129431
59.855 8.497935
59.860 8.083502
59.865 8.484447
59.870 8.554459
59.875 8.753352
59.880 9.121669
59.885 9.433285
59.890 9.460917
59.895 9.353024
59.900 9.023921
59.905 9.617568
59.910 9.386141
59.915 8.775042
59.920 8.646735
59.925 9.109241
59.930 9.473574
59.935 9.358043
59.940 8.677389
59.945 8.239133
59.950 8.216915
59.955 7.959384
59.960 7.983342
59.965 7.983335
59.970 8.037593
59.975 7.902471
59.980 8.260789
59.985 8.627126
59.990 8.971972
59.995 8.935395
60.000 8.886642
60.005 9.211352
60.010 9.796491
60.015 9.541429
60.020 9.265085
60.025 9.360745
60.030 9.237156
60.035 9.405654
60.040 9.359563
60.045 9.407814
60.050 9.435594
60.055 9.24202
60.060 8.747388
60.065 8.374578
60.070 8.010571
60.075 7.527786
60.080 7.240067
60.085 7.654113
60.090 7.519238
60.095 7.598318
60.100 7.920582
60.105 8.078521
60.110 8.503078
60.115 8.783596
60.120 8.823359
60.125 9.132106
60.130 9.252101
60.135 8.859379
60.140 8.575469
60.145 8.230304
60.150 7.893581
60.155 8.16493
60.160 8.123704
60.165 8.124784
60.170 8.574556
60.175 8.615071
60.180 8.82763
60.185 9.072185
60.190 8.760084
60.195 8.654355
60.200 8.53411
60.205 8.237911
60.210 8.270792
60.215 7.557809
60.220 7.415357
60.225 7.852546
60.230 8.114253
60.235 8.335952
60.240 8.368302
60.245 8.573544
60.250 8.731864
60.255 8.060803
60.260 7.595865
60.265 7.42946
60.270 7.427131
60.275 7.739928
60.280 7.95243
60.285 8.384088
60.290 8.82118
60.295 8.994675
60.300 8.972224
60.305 8.775122
60.310 8.472404
60.315 8.151135
60.320 7.912894
60.325 7.707167
60.330 7.372978
60.335 7.420034
60.340 7.472685
60.345 7.483613
60.350 7.828369
60.355 7.775527
60.360 7.914067
60.365 8.147947
60.370 7.75568
60.375 7.630209
60.380 7.942382
60.385 7.928588
60.390 8.143693
60.395 7.971232
60.400 7.692436
60.405 8.331907
60.410 8.680755
60.415 8.681234
60.420 8.703274
60.425 8.50436
60.430 9.056642
60.435 9.371591
60.440 9.200359
60.445 9.049091
60.450 8.803819
60.455 8.406657
60.460 8.71228
60.465 8.813382
60.470 8.757043
60.475 8.436012
60.480 8.395557
60.485 8.733428
60.490 9.086221
60.495 8.793471
60.500 8.348299
60.505 8.453404
60.510 8.528781
60.515 8.351555
60.520 8.272112
60.525 8.038205
60.530 8.29084
60.535 8.413178
60.540 8.300385
60.545 8.374582
60.550 8.386785
60.555 8.313811
60.560 8.33589
60.565 8.337739
60.570 8.766706
60.575 9.158355
60.580 9.353518
60.585 9.314647
60.590 9.616734
60.595 9.412666
60.600 9.184098
60.605 8.867567
60.610 8.812752
60.615 9.03775
60.620 8.828812
60.625 8.323393
60.630 8.599423
60.635 8.418224
60.640 8.043999
60.645 7.378856
60.650 7.000041
60.655 7.147391
60.660 7.577916
60.665 7.615733
60.670 7.539764
60.675 7.543157
60.680 7.749324
60.685 7.627897
60.690 7.4509
60.695 7.437636
60.700 7.381024
60.705 8.007086
60.710 8.563609
60.715 8.741129
60.720 9.007176
60.725 9.158575
60.730 9.060893
60.735 8.877304
60.740 8.940125
60.745 8.944009
60.750 9.056622
60.755 8.911712
60.760 9.061798
60.765 9.159147
60.770 9.007644
60.775 8.528193
60.780 8.382019
60.785 8.404921
60.790 8.208602
60.795 8.14785
60.800 8.216846
60.805 8.191278
60.810 7.977898
60.815 7.827513
60.820 7.931433
60.825 8.257909
60.830 8.153563
60.835 8.198209
60.840 8.088562
60.845 8.796332
60.850 8.817967
60.855 9.392315
60.860 9.574237
60.865 9.447357
60.870 9.277927
60.875 9.252457
60.880 9.075294
60.885 9.200269
60.890 8.378444
60.895 8.136908
60.900 8.268831
60.905 8.15792
60.910 8.060412
60.915 8.039618
60.920 7.944983
60.925 8.110264
60.930 8.375666
60.935 8.47973
60.940 8.903244
60.945 9.286906
60.950 9.412831
60.955 9.266207
60.960 9.344946
60.965 9.096017
60.970 8.916632
60.975 8.689457
60.980 8.483724
60.985 8.328389
60.990 8.230378
60.995 7.822608
61.000 8.071109
61.005 8.109216
61.010 8.239463
61.015 8.209873
61.020 8.153935
61.025 7.782735
61.030 8.004503
61.035 7.766864
61.040 7.857273
61.045 7.507107
61.050 7.202326
61.055 6.979875
61.060 7.481149
61.065 7.582156
61.070 7.754773
61.075 7.920713
61.080 8.183243
61.085 8.477542
61.090 9.182462
61.095 9.272805
61.100 9.066938
61.105 8.696638
61.110 8.64969
61.115 8.589016
61.120 8.620656
61.125 8.01049
61.130 7.612136
61.135 7.798704
61.140 7.826665
61.145 7.859659
61.150 8.088974
61.155 8.186377
61.160 8.504449
61.165 8.251723
61.170 8.495575
61.175 8.54923
61.180 8.375337
61.185 8.360256
61.190 8.253915
61.195 8.118823
61.200 8.302537
61.205 8.154649
61.210 8.258786
61.215 8.34847
61.220 8.368137
61.225 8.396056
61.230 8.617038
61.235 8.56816
61.240 8.489787
61.245 8.718459
61.250 8.888223
61.255 8.736985
61.260 8.590162
61.265 8.690427
61.270 8.514013
61.275 8.351128
61.280 8.186265
61.285 8.057432
61.290 8.039385
61.295 7.865085
61.300 8.140323
61.305 8.702607
61.310 8.900322
61.315 8.520065
61.320 8.58385
61.325 9.106207
61.330 9.286943
61.335 8.799375
61.340 7.997353
61.345 7.735285
61.350 7.855096
61.355 7.877689
61.360 7.520459
61.365 7.239027
61.370 7.417549
61.375 8.079228
61.380 8.166146
61.385 8.171088
61.390 7.802795
61.395 7.748721
61.400 8.255908
61.405 8.498515
61.410 8.415115
61.415 8.151011
61.420 7.978175
61.425 8.393658
61.430 8.390783
61.435 8.081277
61.440 7.938965
61.445 7.762278
61.450 8.16036
61.455 8.479557
61.460 8.373158
61.465 8.474254
61.470 8.709923
61.475 8.866108
61.480 9.017732
61.485 8.872734
61.490 8.704211
61.495 8.735987
61.500 8.655993
61.505 8.434443
61.510 8.457968
61.515 8.46578
61.520 8.547225
61.525 8.538726
61.530 8.666001
61.535 8.649419
61.540 8.742453
61.545 8.837781
61.550 8.978499
61.555 8.969428
61.560 9.142962
61.565 9.072429
61.570 9.231832
61.575 9.119027
61.580 9.108469
61.585 9.053388
61.590 9.058747
61.595 8.909155
61.600 8.580961
61.605 8.375638
61.610 7.955381
61.615 7.812062
61.620 7.694997
61.625 7.148242
61.630 7.197001
61.635 7.391265
61.640 7.773555
61.645 8.105357
61.650 8.118345
61.655 8.658275
61.660 9.273498
61.665 9.507211
61.670 9.287118
61.675 9.229243
61.680 9.216045
61.685 9.107372
61.690 8.791995
61.695 8.657408
61.700 8.167414
61.705 8.045342
61.710 7.985104
61.715 8.090236
61.720 7.85411
61.725 7.9366
61.730 7.99614
61.735 8.318587
61.740 8.392878
61.745 7.895106
61.750 7.398263
61.755 7.48054
61.760 7.331336
61.765 7.211454
61.770 7.207209
61.775 7.259732
61.780 7.217598
61.785 7.649266
61.790 7.990544
61.795 7.957347
61.800 8.236135
61.805 8.246533
61.810 8.314455
61.815 8.577281
61.820 8.419631
61.825 8.292868
61.830 8.287176
61.835 8.307289
61.840 8.379895
61.845 8.470881
61.850 8.407866
61.855 8.644559
61.860 8.813907
61.865 9.27044
61.870 9.323417
61.875 9.442446
61.880 9.561524
61.885 9.65246
61.890 9.856461
61.895 9.670153
61.900 9.235801
61.905 9.038109
61.910 9.339272
61.915 9.620104
61.920 9.607975
61.925 9.499346
61.930 9.581537
61.935 9.67983
61.940 9.73858
61.945 9.142967
61.950 8.486401
61.955 8.369123
61.960 8.369816
61.965 8.312766
61.970 8.373333
61.975 8.483148
61.980 8.724152
61.985 9.345541
61.990 9.401258
61.995 8.812274
62.000 8.685905
62.005 8.155683
62.010 7.877553
62.015 8.029498
62.020 7.907938
62.025 7.690227
62.030 7.751636
62.035 7.800857
62.040 8.164334
62.045 8.062751
62.050 8.081983
62.055 8.179945
62.060 8.835074
62.065 9.121278
62.070 8.994892
62.075 9.206298
62.080 9.49675
62.085 9.438593
62.090 8.95789
62.095 8.363906
62.100 8.274184
62.105 8.937706
62.110 9.025908
62.115 8.7492
62.120 8.553879
62.125 9.16882
62.130 9.635999
62.135 9.930983
62.140 9.580893
62.145 8.985144
62.150 9.291235
62.155 9.15041
62.160 8.676985
62.165 8.632409
62.170 8.713767
62.175 8.640675
62.180 9.396697
62.185 9.455581
62.190 9.797556
62.195 10.126745
62.200 9.971052
62.205 9.788942
62.210 9.784227
62.215 9.276756
62.220 8.990673
62.225 9.011013
62.230 8.914395
62.235 9.477902
62.240 9.695113
62.245 9.68214
62.250 9.761018
62.255 9.791959
62.260 9.610684
62.265 9.479628
62.270 9.286908
62.275 9.48516
62.280 9.457623
62.285 9.605554
62.290 9.48119
62.295 9.530277
62.300 9.08791
62.305 8.654201
62.310 8.042654
62.315 7.71395
62.320 7.547373
62.325 7.627035
62.330 7.536922
62.335 7.731973
62.340 7.857602
62.345 8.186937
62.350 8.263347
62.355 8.342962
62.360 8.421444
62.365 8.611755
62.370 8.787393
62.375 8.665146
62.380 8.522456
62.385 8.552656
62.390 8.481005
62.395 8.296336
62.400 8.407148
62.405 8.54262
62.410 8.633686
62.415 9.001201
62.420 8.861432
62.425 8.879951
62.430 8.937291
62.435 8.837841
62.440 8.733487
62.445 8.783018
62.450 8.582759
62.455 8.721409
62.460 9.473734
62.465 9.945294
62.470 10.141901
62.475 10.514472
62.480 10.05764
62.485 9.996672
62.490 9.924073
62.495 8.973796
62.500 8.651376
62.505 8.158976
62.510 7.805239
62.515 7.979733
62.520 8.354013
62.525 8.755217
62.530 9.160607
62.535 9.596596
62.540 10.104163
62.545 10.506474
62.550 10.65058
62.555 11.159844
62.560 10.950242
62.565 10.960253
62.570 11.020834
62.575 10.852205
62.580 10.677889
62.585 10.514172
62.590 9.498177
62.595 9.514986
62.600 9.490323
62.605 9.072222
62.610 9.224091
62.615 9.754471
62.620 9.936465
62.625 10.13404
62.630 9.93668
62.635 9.760632
62.640 9.475129
62.645 9.355981
62.650 9.019749
62.655 8.96249
62.660 9.092292
62.665 9.597612
62.670 10.322319
62.675 10.726789
62.680 10.118167
62.685 9.966907
62.690 9.799087
62.695 9.684869
62.700 9.54998
62.705 9.227798
62.710 9.253309
62.715 9.840576
62.720 10.120165
62.725 10.530983
62.730 10.862664
62.735 11.042615
62.740 11.001038
62.745 11.170838
62.750 11.069425
62.755 11.113779
62.760 11.35374
62.765 10.915369
62.770 10.543548
62.775 10.586637
62.780 10.461357
62.785 10.524317
62.790 10.078337
62.795 9.964076
62.800 10.270738
62.805 10.498004
62.810 10.079402
62.815 9.664257
62.820 9.730876
62.825 10.03348
62.830 9.881212
62.835 9.705783
62.840 9.614994
62.845 9.924918
62.850 10.231369
62.855 9.906744
62.860 9.895826
62.865 10.248276
62.870 10.096937
62.875 9.625342
62.880 9.662181
62.885 9.642367
62.890 9.518716
62.895 9.035875
62.900 8.39825
62.905 8.503748
62.910 8.755974
62.915 8.875662
62.920 8.9946
62.925 9.098337
62.930 9.474593
62.935 9.928461
62.940 10.038213
62.945 10.133246
62.950 10.194886
62.955 10.469444
62.960 10.805958
62.965 10.909767
62.970 10.757794
62.975 10.582356
62.980 10.252618
62.985 9.912849
62.990 9.485398
62.995 9.339281
63.000 9.439459
63.005 8.961573
63.010 8.881401
63.015 9.024324
63.020 9.342586
63.025 9.559651
63.030 9.090923
63.035 8.916822
63.040 8.934205
63.045 9.042095
63.050 8.647368
63.055 8.102649
63.060 8.153411
63.065 8.378522
63.070 8.459416
63.075 8.84867
63.080 8.874212
63.085 9.155373
63.090 9.076484
63.095 9.013482
63.100 8.841804
63.105 8.364534
63.110 8.49318
63.115 8.717147
63.120 8.868866
63.125 8.767241
63.130 9.3329
63.135 9.505294
63.140 9.375953
63.145 9.105166
63.150 8.602386
63.155 8.364106
63.160 8.578203
63.165 8.124001
63.170 8.29794
63.175 8.390759
63.180 8.303725
63.185 8.567971
63.190 8.917069
63.195 8.458114
63.200 8.273709
63.205 8.478272
63.210 8.670098
63.215 8.894066
63.220 8.811193
63.225 8.382968
63.230 8.556027
63.235 8.662601
63.240 8.6422
63.245 8.971496
63.250 8.778287
63.255 9.075885
63.260 9.324954
63.265 9.2704
63.270 9.142568
63.275 8.858964
63.280 8.742199
63.285 8.841639
63.290 8.72926
63.295 8.606494
63.300 8.716152
63.305 8.986586
63.310 9.188611
63.315 8.785136
63.320 9.12842
63.325 9.459838
63.330 9.74318
63.335 9.785583
63.340 9.788245
63.345 9.747252
63.350 9.997549
63.355 9.914719
63.360 10.091504
63.365 10.242085
63.370 10.312071
63.375 10.401742
63.380 10.524005
63.385 10.636503
63.390 10.242104
63.395 9.833659
63.400 9.468798
63.405 9.221667
63.410 8.910276
63.415 8.690396
63.420 8.531987
63.425 8.490234
63.430 8.539147
63.435 9.069148
63.440 9.278462
63.445 9.432514
63.450 9.612083
63.455 9.714647
63.460 9.775112
63.465 9.657909
63.470 9.45633
63.475 9.565665
63.480 9.175602
63.485 9.083828
63.490 9.058244
63.495 9.253189
63.500 9.395531
63.505 9.492615
63.510 9.312663
63.515 9.176198
63.520 8.844186
63.525 8.440125
63.530 8.622741
63.535 8.796788
63.540 8.495335
63.545 8.562288
63.550 8.710695
63.555 8.682712
63.560 8.699024
63.565 8.644976
63.570 8.601236
63.575 8.609516
63.580 8.480562
63.585 8.666432
63.590 8.56549
63.595 8.697639
63.600 8.512911
63.605 8.092165
63.610 7.793396
63.615 7.560831
63.620 7.643662
63.625 7.894936
63.630 7.681982
63.635 7.568826
63.640 7.967616
63.645 8.334411
63.650 8.215147
63.655 8.156169
63.660 8.142772
63.665 8.092936
63.670 7.718058
63.675 7.611641
63.680 7.453433
63.685 7.782497
63.690 7.991254
63.695 8.096349
63.700 7.913855
63.705 8.118436
63.710 7.898596
63.715 7.997067
63.720 7.939656
63.725 7.565203
63.730 7.461446
63.735 7.676236
63.740 8.101679
63.745 8.123816
63.750 7.854921
63.755 7.784877
63.760 8.118756
63.765 8.246906
63.770 8.616931
63.775 8.682123
63.780 8.864235
63.785 8.625023
63.790 8.327069
63.795 8.427079
63.800 8.10499
63.805 7.901917
63.810 7.582893
63.815 7.571578
63.820 7.755606
63.825 7.997838
63.830 7.88086
63.835 7.936111
63.840 7.515459
63.845 7.433903
63.850 7.721999
63.855 7.930905
63.860 7.817703
63.865 7.942959
63.870 7.994699
63.875 8.155995
63.880 8.048928
63.885 7.945165
63.890 7.749682
63.895 7.443546
63.900 7.185742
63.905 7.497486
63.910 7.558508
63.915 7.804352
63.920 7.703909
63.925 8.10511
63.930 8.518358
63.935 8.634617
63.940 8.521675
63.945 8.705827
63.950 8.797842
63.955 8.815108
63.960 8.566363
63.965 8.830013
63.970 8.573641
63.975 8.240821
63.980 7.998061
63.985 8.107133
63.990 8.042867
63.995 8.15249
64.000 8.101402
64.005 8.445579
64.010 8.911538
64.015 8.724309
64.020 8.517104
64.025 8.623978
64.030 8.431145
64.035 8.472257
64.040 8.417842
64.045 8.238098
64.050 8.727813
64.055 8.603801
64.060 8.624354
64.065 8.509467
64.070 8.237723
64.075 8.014729
64.080 8.062249
64.085 7.802841
64.090 7.562896
64.095 7.668806
64.100 7.502646
64.105 7.632622
64.110 7.563388
64.115 7.747742
64.120 8.005835
64.125 8.117021
64.130 8.094915
64.135 8.351011
64.140 7.977242
64.145 7.831343
64.150 7.71518
64.155 7.983679
64.160 8.177542
64.165 8.235795
64.170 8.209023
64.175 8.996601
64.180 9.252806
64.185 9.619174
64.190 9.291252
64.195 9.060994
64.200 8.934895
64.205 8.841509
64.210 8.396229
64.215 8.617517
64.220 8.372363
64.225 8.0201
64.230 7.842204
64.235 7.789046
64.240 7.641581
64.245 7.409788
64.250 7.132545
64.255 6.941286
64.260 7.364319
64.265 7.806617
64.270 7.936725
64.275 7.984231
64.280 8.003529
64.285 8.092934
64.290 7.970445
64.295 7.500321
64.300 7.235228
64.305 6.952564
64.310 7.171236
64.315 7.373616
64.320 7.253159
64.325 7.433578
64.330 7.697171
64.335 8.01254
64.340 8.62878
64.345 8.644418
64.350 8.953709
64.355 9.202717
64.360 8.965161
64.365 8.950991
64.370 8.712006
64.375 8.38213
64.380 8.188117
64.385 7.836581
64.390 7.843808
64.395 8.067603
64.400 8.162359
64.405 8.329029
64.410 8.570701
64.415 9.03494
64.420 8.929129
64.425 8.671329
64.430 8.484625
64.435 8.45532
64.440 8.913942
64.445 9.337169
64.450 9.557408
64.455 9.699114
64.460 9.539994
64.465 10.022546
64.470 9.991327
64.475 9.32472
64.480 8.910636
64.485 8.673255
64.490 9.061414
64.495 9.521509
64.500 9.549192
64.505 9.3431
64.510 9.497439
64.515 9.570537
64.520 9.456249
64.525 9.366675
64.530 8.941971
64.535 8.740596
64.540 9.143125
64.545 9.341227
64.550 9.137274
64.555 8.914987
64.560 8.554124
64.565 9.185659
64.570 9.461468
64.575 9.594209
64.580 9.379385
64.585 9.830155
64.590 10.208296
64.595 10.125818
64.600 9.843287
64.605 9.509453
64.610 9.213357
64.615 9.148328
64.620 8.948225
64.625 8.77893
64.630 9.127709
64.635 8.954954
64.640 9.168449
64.645 9.900093
64.650 9.935926
64.655 9.77211
64.660 9.911964
64.665 9.508665
64.670 9.595094
64.675 8.947049
64.680 8.230142
64.685 8.060391
64.690 8.160201
64.695 8.380393
64.700 9.162365
64.705 9.528999
64.710 10.142673
64.715 10.27007
64.720 10.571177
64.725 10.326788
64.730 9.808999
64.735 9.238808
64.740 9.284248
64.745 9.15771
64.750 9.80794
64.755 10.125376
64.760 10.215364
64.765 10.673114
64.770 11.100425
64.775 10.984126
64.780 10.874862
64.785 10.560945
64.790 10.16927
64.795 10.111465
64.800 10.134057
64.805 10.169501
64.810 10.045779
64.815 10.403346
64.820 10.762784
64.825 10.930087
64.830 11.210851
64.835 11.074743
64.840 10.571911
64.845 10.512474
64.850 10.003807
64.855 9.358397
64.860 9.43323
64.865 9.956921
64.870 10.290464
64.875 10.987532
64.880 11.528952
64.885 11.72902
64.890 12.570054
64.895 13.340676
64.900 13.334438
64.905 13.254017
64.910 13.281268
64.915 13.582476
64.920 14.342187
64.925 14.266483
64.930 13.637979
64.935 13.451983
64.940 13.204724
64.945 12.728014
64.950 12.603982
64.955 12.262369
64.960 12.369038
64.965 12.247165
64.970 12.319077
64.975 12.808097
64.980 13.188243
64.985 12.716547
64.990 12.743011
64.995 12.570968
65.000 12.82408
65.005 12.831362
65.010 12.111138
65.015 11.600466
65.020 11.895222
65.025 12.153029
65.030 12.778556
65.035 12.822042
65.040 12.825665
65.045 13.432934
65.050 14.029839
65.055 14.218031
65.060 13.809731
65.065 13.352476
65.070 13.471814
65.075 13.220494
65.080 12.735235
65.085 12.756491
65.090 12.6128
65.095 12.739377
65.100 12.448754
65.105 12.337797
65.110 12.889621
65.115 13.160994
65.120 12.83239
65.125 12.753555
65.130 12.459567
65.135 12.430851
65.140 12.257439
65.145 12.227114
65.150 12.213925
65.155 12.082022
65.160 12.117743
65.165 12.210718
65.170 11.833787
65.175 11.577255
65.180 11.579623
65.185 11.664637
65.190 11.623674
65.195 11.849538
65.200 12.263613
65.205 12.634913
65.210 12.678186
65.215 12.315293
65.220 12.160884
65.225 12.095556
65.230 11.897374
65.235 11.40819
65.240 11.216437
65.245 11.308363
65.250 11.096774
65.255 10.761339
65.260 10.483435
65.265 9.878285
65.270 9.483664
65.275 9.568192
65.280 9.596238
65.285 9.718453
65.290 10.020179
65.295 10.205421
65.300 10.040852
65.305 10.63706
65.310 10.635614
65.315 10.274854
65.320 9.938742
65.325 9.953836
65.330 9.63277
65.335 9.89843
65.340 9.573093
65.345 9.294433
65.350 9.432148
65.355 9.389997
65.360 9.187403
65.365 9.764354
65.370 9.578663
65.375 9.607277
65.380 9.709863
65.385 10.068769
65.390 10.346589
65.395 10.184308
65.400 9.733682
65.405 9.552557
65.410 9.350345
65.415 9.051563
65.420 8.724854
65.425 8.760321
65.430 8.916301
65.435 8.735063
65.440 8.914143
65.445 9.193679
65.450 9.424286
65.455 9.121856
65.460 8.825819
65.465 8.932077
65.470 9.143645
65.475 9.235205
65.480 8.854477
65.485 8.698791
65.490 8.922767
65.495 8.982592
65.500 8.894384
65.505 9.290446
65.510 9.533137
65.515 9.568582
65.520 9.637236
65.525 9.657554
65.530 9.815062
65.535 9.851029
65.540 9.729367
65.545 9.397954
65.550 9.357506
65.555 9.404374
65.560 9.091825
65.565 8.797069
65.570 8.468095
65.575 8.178529
65.580 8.308448
65.585 8.278429
65.590 7.907228
65.595 7.741251
65.600 8.298488
65.605 8.614166
65.610 8.280113
65.615 7.408772
65.620 7.30265
65.625 7.583528
65.630 7.575323
65.635 7.221803
65.640 7.01237
65.645 7.462151
65.650 8.107179
65.655 7.984077
65.660 8.233323
65.665 8.632603
65.670 8.791838
65.675 8.988626
65.680 9.051403
65.685 9.061144
65.690 9.351477
65.695 9.538259
65.700 9.630475
65.705 9.593369
65.710 9.577376
65.715 9.510271
65.720 9.473208
65.725 9.153028
65.730 8.64583
65.735 8.491984
65.740 8.398896
65.745 8.278332
65.750 8.147635
65.755 8.206312
65.760 8.346645
65.765 8.413477
65.770 8.400047
65.775 8.536636
65.780 8.592758
65.785 8.621299
65.790 8.705156
65.795 8.470519
65.800 8.038194
65.805 7.974247
65.810 7.897732
65.815 7.971913
65.820 7.778205
65.825 7.695698
65.830 8.194867
65.835 8.641985
65.840 8.963815
65.845 9.059605
65.850 9.343639
65.855 9.968257
65.860 10.002219
65.865 9.816694
65.870 9.633181
65.875 9.145014
65.880 9.018483
65.885 8.727177
65.890 8.139666
65.895 8.299245
65.900 8.240198
65.905 8.349607
65.910 8.269643
65.915 8.348301
65.920 8.408912
65.925 9.253964
65.930 9.096075
65.935 9.234587
65.940 9.25049
65.945 9.488693
65.950 9.355178
65.955 9.377451
65.960 9.47027
65.965 9.429299
65.970 9.579494
65.975 9.164117
65.980 9.098608
65.985 9.191233
65.990 8.914157
65.995 8.837159
66.000 8.62735
66.005 8.41636
66.010 8.498107
66.015 8.463006
66.020 8.258168
66.025 8.028465
66.030 7.674667
66.035 8.026223
66.040 8.065801
66.045 8.014186
66.050 7.707745
66.055 7.790993
66.060 7.834217
66.065 7.823618
66.070 7.513844
66.075 7.82187
66.080 8.089561
66.085 8.259486
66.090 8.343737
66.095 8.144846
66.100 7.917505
66.105 8.123544
66.110 8.123355
66.115 7.913773
66.120 7.796866
66.125 7.736473
66.130 7.826931
66.135 8.021301
66.140 8.335664
66.145 8.152151
66.150 8.397974
66.155 8.668659
66.160 9.054666
66.165 9.46387
66.170 9.947333
66.175 9.762331
66.180 9.659728
66.185 9.447132
66.190 9.402182
66.195 9.318421
66.200 9.147871
66.205 8.968888
66.210 8.582568
66.215 8.59666
66.220 9.088001
66.225 9.246332
66.230 9.245707
66.235 9.17213
66.240 8.94442
66.245 9.497237
66.250 9.639338
66.255 9.29827
66.260 9.347624
66.265 9.346066
66.270 9.255528
66.275 9.214252
66.280 9.098002
66.285 9.61762
66.290 9.96918
66.295 9.775119
66.300 9.696047
66.305 9.454207
66.310 9.284145
66.315 8.955161
66.320 8.448862
66.325 8.03266
66.330 8.079035
66.335 7.906558
66.340 8.241663
66.345 8.308388
66.350 8.189968
66.355 8.291544
66.360 8.376863
66.365 8.376529
66.370 8.619406
66.375 8.96851
66.380 9.153907
66.385 9.58403
66.390 9.478698
66.395 9.431335
66.400 9.275136
66.405 9.185946
66.410 8.661238
66.415 8.216856
66.420 7.816453
66.425 8.052684
66.430 8.199935
66.435 8.410271
66.440 8.482323
66.445 8.695749
66.450 8.88208
66.455 8.708792
66.460 8.663671
66.465 9.036092
66.470 9.131431
66.475 9.567674
66.480 9.193307
66.485 9.102523
66.490 9.183844
66.495 8.965752
66.500 8.613118
66.505 8.340213
66.510 8.082955
66.515 8.811209
66.520 8.883424
66.525 8.665854
66.530 8.495296
66.535 8.638721
66.540 8.780046
66.545 8.591821
66.550 8.41958
66.555 8.509865
66.560 9.007298
66.565 9.393395
66.570 9.224547
66.575 9.274569
66.580 9.152339
66.585 8.975338
66.590 9.078314
66.595 8.925015
66.600 8.849422
66.605 8.732828
66.610 8.507799
66.615 8.386403
66.620 8.098858
66.625 8.084635
66.630 7.872648
66.635 7.384293
66.640 7.406919
66.645 7.276073
66.650 7.175088
66.655 7.740273
66.660 7.497865
66.665 7.382349
66.670 7.479898
66.675 7.492531
66.680 7.648104
66.685 7.826844
66.690 7.476331
66.695 7.690157
66.700 7.883133
66.705 7.944614
66.710 7.631037
66.715 7.641967
66.720 8.02275
66.725 8.157803
66.730 8.112336
66.735 8.263983
66.740 8.403608
66.745 8.830805
66.750 8.950595
66.755 8.538595
66.760 8.42287
66.765 8.409369
66.770 8.185448
66.775 8.321273
66.780 7.654108
66.785 7.488767
66.790 7.440806
66.795 7.663767
66.800 7.758304
66.805 8.097162
66.810 8.256787
66.815 8.823533
66.820 9.032316
66.825 9.128218
66.830 8.963928
66.835 8.699091
66.840 8.283466
66.845 7.960112
66.850 7.748851
66.855 7.452099
66.860 7.588884
66.865 7.719595
66.870 7.858862
66.875 8.072692
66.880 7.975035
66.885 7.717855
66.890 7.344812
66.895 7.069325
66.900 6.626111
66.905 6.549433
66.910 6.369561
66.915 6.498141
66.920 6.743041
66.925 6.911306
66.930 7.151974
66.935 7.562288
66.940 7.58633
66.945 7.370373
66.950 7.683416
66.955 7.869102
66.960 8.239264
66.965 8.579541
66.970 8.372184
66.975 8.491429
66.980 9.034199
66.985 8.748055
66.990 8.340318
66.995 8.177288
67.000 8.040664
67.005 8.172374
67.010 8.099496
67.015 8.024188
67.020 7.994802
67.025 8.280816
67.030 8.115387
67.035 8.222958
67.040 8.245399
67.045 8.227122
67.050 8.241848
67.055 8.089494
67.060 7.876896
67.065 7.922609
67.070 7.390243
67.075 7.566236
67.080 7.559514
67.085 7.490947
67.090 7.434038
67.095 7.659235
67.100 7.774194
67.105 8.273626
67.110 8.210908
67.115 8.141179
67.120 8.556489
67.125 9.219232
67.130 9.381803
67.135 9.245155
67.140 9.426898
67.145 9.287704
67.150 9.243796
67.155 8.864714
67.160 8.606915
67.165 8.453637
67.170 8.160698
67.175 7.800951
67.180 7.863134
67.185 8.092081
67.190 8.170879
67.195 8.282893
67.200 8.645623
67.205 8.951714
67.210 8.878273
67.215 9.286901
67.220 9.844617
67.225 9.98157
67.230 9.857161
67.235 9.283498
67.240 9.105414
67.245 9.158405
67.250 8.512357
67.255 8.08009
67.260 7.69331
67.265 7.544624
67.270 8.023158
67.275 8.506095
67.280 8.926183
67.285 9.328935
67.290 9.177943
67.295 8.929808
67.300 8.910017
67.305 8.755816
67.310 8.063903
67.315 7.70133
67.320 7.095758
67.325 6.796938
67.330 7.20449
67.335 7.140004
67.340 6.735493
67.345 6.85369
67.350 6.948009
67.355 7.375948
67.360 7.668743
67.365 7.401536
67.370 7.636977
67.375 8.043177
67.380 8.305385
67.385 8.297492
67.390 8.359873
67.395 8.543079
67.400 8.773807
67.405 8.743447
67.410 8.981589
67.415 8.906647
67.420 8.995616
67.425 9.197986
67.430 9.078699
67.435 8.993065
67.440 8.984493
67.445 8.724762
67.450 8.68434
67.455 8.562076
67.460 8.399641
67.465 8.449312
67.470 8.40632
67.475 8.447674
67.480 8.29785
67.485 8.152555
67.490 8.232263
67.495 8.288242
67.500 8.483532
67.505 8.748105
67.510 8.616177
67.515 8.407941
67.520 8.293902
67.525 8.30541
67.530 8.102036
67.535 8.260134
67.540 7.963752
67.545 8.070752
67.550 8.694173
67.555 8.986391
67.560 8.976719
67.565 8.838499
67.570 8.694209
67.575 8.551925
67.580 8.479637
67.585 8.360663
67.590 8.263262
67.595 8.136216
67.600 7.957834
67.605 8.062899
67.610 8.786607
67.615 9.025535
67.620 8.867841
67.625 8.387017
67.630 8.567137
67.635 8.295325
67.640 7.849482
67.645 7.400423
67.650 7.538191
67.655 7.688297
67.660 8.200846
67.665 8.530045
67.670 8.675093
67.675 8.734219
67.680 8.863605
67.685 8.978206
67.690 8.780197
67.695 8.750283
67.700 9.096784
67.705 9.652257
67.710 9.636366
67.715 9.348341
67.720 9.162005
67.725 9.344117
67.730 9.15731
67.735 8.993906
67.740 9.154749
67.745 9.625525
67.750 9.882677
67.755 9.935105
67.760 10.263321
67.765 10.322902
67.770 10.008569
67.775 9.749467
67.780 9.483913
67.785 9.345217
67.790 8.867689
67.795 8.627106
67.800 8.41582
67.805 8.150062
67.810 7.970655
67.815 7.392224
67.820 7.274092
67.825 7.198472
67.830 7.332595
67.835 7.836965
67.840 8.070044
67.845 8.410045
67.850 9.226674
67.855 9.704095
67.860 10.036714
67.865 10.037845
67.870 10.152486
67.875 10.152794
67.880 10.577865
67.885 10.162649
67.890 9.773252
67.895 9.708386
67.900 9.346217
67.905 9.367236
67.910 9.095758
67.915 8.825457
67.920 9.262821
67.925 9.479707
67.930 9.369304
67.935 9.481908
67.940 9.287416
67.945 9.787082
67.950 9.542726
67.955 9.239899
67.960 9.298891
67.965 9.752318
67.970 9.706476
67.975 9.738715
67.980 9.151293
67.985 9.230778
67.990 9.082597
67.995 9.12415
68.000 8.779796
68.005 8.590675
68.010 8.912591
68.015 9.266267
68.020 9.49866
68.025 9.572835
68.030 9.39887
68.035 9.639543
68.040 9.661356
68.045 9.738229
68.050 9.683443
68.055 9.467059
68.060 9.607049
68.065 9.375235
68.070 9.353466
68.075 9.612938
68.080 9.475958
68.085 9.449582
68.090 9.555712
68.095 9.442152
68.100 9.815516
68.105 10.002316
68.110 9.72473
68.115 9.772888
68.120 9.666545
68.125 9.527975
68.130 9.698544
68.135 9.477282
68.140 8.968372
68.145 8.768929
68.150 8.532633
68.155 8.498666
68.160 8.281157
68.165 7.891449
68.170 7.785108
68.175 8.19379
68.180 8.261422
68.185 8.442093
68.190 8.728964
68.195 9.164381
68.200 9.243255
68.205 9.334636
68.210 8.988915
68.215 8.867266
68.220 8.95023
68.225 8.719576
68.230 8.365741
68.235 7.993315
68.240 7.97141
68.245 7.9845
68.250 7.918821
68.255 7.815627
68.260 8.18246
68.265 8.257125
68.270 8.485745
68.275 8.216
68.280 8.154879
68.285 8.256398
68.290 7.922057
68.295 7.840718
68.300 7.83217
68.305 8.015815
68.310 8.154655
68.315 8.363678
68.320 8.316294
68.325 8.441301
68.330 8.766628
68.335 8.60006
68.340 8.220374
68.345 8.279876
68.350 8.088115
68.355 8.318152
68.360 8.033747
68.365 7.740764
68.370 8.681655
68.375 9.27927
68.380 9.44032
68.385 9.557769
68.390 9.53456
68.395 9.316846
68.400 8.876987
68.405 8.151103
68.410 7.788335
68.415 7.646173
68.420 7.670351
68.425 7.68586
68.430 7.861361
68.435 7.90229
68.440 8.200633
68.445 8.417223
68.450 8.300352
68.455 8.204651
68.460 8.274669
68.465 8.533368
68.470 8.705428
68.475 8.650002
68.480 8.611247
68.485 9.010659
68.490 8.858003
68.495 8.742213
68.500 8.119989
68.505 7.775997
68.510 7.869941
68.515 8.171277
68.520 8.372434
68.525 8.444483
68.530 8.88403
68.535 9.450953
68.540 9.882229
68.545 9.77323
68.550 9.324014
68.555 8.618157
68.560 8.353269
68.565 7.899943
68.570 7.773511
68.575 7.571997
68.580 7.026585
68.585 7.020159
68.590 7.367881
68.595 7.571813
68.600 7.756473
68.605 7.806538
68.610 7.851552
68.615 7.93548
68.620 7.794879
68.625 7.477779
68.630 7.413857
68.635 7.450564
68.640 7.791455
68.645 8.232197
68.650 8.451555
68.655 8.443893
68.660 8.409066
68.665 8.338876
68.670 8.55709
68.675 8.290882
68.680 7.866877
68.685 7.742954
68.690 8.204155
68.695 8.080973
68.700 8.041728
68.705 7.777887
68.710 7.917735
68.715 8.014096
68.720 8.118617
68.725 8.250525
68.730 9.120488
68.735 9.314465
68.740 9.154887
68.745 9.373865
68.750 9.49571
68.755 9.407963
68.760 8.922008
68.765 8.860228
68.770 8.786471
68.775 8.562131
68.780 8.459614
68.785 8.597978
68.790 8.620748
68.795 8.335004
68.800 7.772354
68.805 7.732536
68.810 7.724243
68.815 7.697773
68.820 7.771916
68.825 7.812202
68.830 8.308138
68.835 8.96058
68.840 9.198119
68.845 9.364038
68.850 9.359407
68.855 9.30158
68.860 9.187955
68.865 9.117686
68.870 8.800588
68.875 8.559387
68.880 8.088957
68.885 7.935335
68.890 7.676939
68.895 7.430523
68.900 7.741002
68.905 7.629803
68.910 7.770938
68.915 8.310455
68.920 8.45809
68.925 8.908291
68.930 9.195423
68.935 8.661433
68.940 9.158409
68.945 9.185335
68.950 9.031113
68.955 9.162024
68.960 8.797846
68.965 8.720573
68.970 8.934693
68.975 8.761038
68.980 8.562378
68.985 8.871993
68.990 9.066675
68.995 9.39914
69.000 9.604606
69.005 9.695636
69.010 9.955948
69.015 10.093726
69.020 10.134265
69.025 10.092314
69.030 10.27171
69.035 10.342895
69.040 10.209132
69.045 10.397424
69.050 10.408771
69.055 10.176688
69.060 10.397441
69.065 9.804084
69.070 9.793437
69.075 9.964913
69.080 9.733268
69.085 9.734711
69.090 9.988315
69.095 9.897352
69.100 10.041063
69.105 10.200195
69.110 10.31146
69.115 10.235439
69.120 10.115525
69.125 9.551643
69.130 9.433025
69.135 9.258546
69.140 8.821281
69.145 8.827796
69.150 8.618667
69.155 8.680571
69.160 9.08388
69.165 9.12732
69.170 9.516369
69.175 9.562028
69.180 9.00617
69.185 8.879624
69.190 9.030696
69.195 8.865348
69.200 8.562885
69.205 8.476624
69.210 8.555641
69.215 8.869612
69.220 9.101093
69.225 8.94416
69.230 8.734823
69.235 8.77926
69.240 8.490036
69.245 8.509631
69.250 8.168018
69.255 7.843314
69.260 7.715202
69.265 8.019605
69.270 8.144238
69.275 8.658066
69.280 8.842743
69.285 8.733089
69.290 8.867279
69.295 9.042874
69.300 9.132039
69.305 9.06209
69.310 8.486657
69.315 8.422169
69.320 8.66055
69.325 8.640839
69.330 8.36771
69.335 8.043789
69.340 7.83235
69.345 8.099773
69.350 8.192405
69.355 8.312961
69.360 8.012405
69.365 8.309551
69.370 8.341273
69.375 8.65154
69.380 8.800165
69.385 8.932826
69.390 8.88603
69.395 9.134567
69.400 8.969593
69.405 9.156955
69.410 8.948803
69.415 8.543529
69.420 8.819987
69.425 8.944308
69.430 8.984518
69.435 9.177292
69.440 9.095571
69.445 8.843407
69.450 8.717854
69.455 8.086849
69.460 8.2367
69.465 8.212388
69.470 7.940101
69.475 7.862365
69.480 8.080649
69.485 8.006076
69.490 8.094163
69.495 7.907252
69.500 8.029531
69.505 7.965963
69.510 8.119057
69.515 8.399126
69.520 8.733735
69.525 8.304526
69.530 8.004002
69.535 7.740358
69.540 8.097785
69.545 8.196918
69.550 7.944454
69.555 7.875647
69.560 8.366452
69.565 8.416783
69.570 8.702537
69.575 8.646781
69.580 8.496983
69.585 8.358364
69.590 8.290754
69.595 8.157268
69.600 8.33573
69.605 8.172305
69.610 8.124961
69.615 8.032409
69.620 8.085441
69.625 8.575134
69.630 8.276583
69.635 8.051595
69.640 7.841346
69.645 7.752496
69.650 7.797606
69.655 7.772825
69.660 7.526064
69.665 7.861382
69.670 8.206415
69.675 8.308672
69.680 8.17627
69.685 8.190422
69.690 7.895851
69.695 7.934067
69.700 7.68128
69.705 7.477712
69.710 7.899126
69.715 8.182836
69.720 8.039135
69.725 7.926615
69.730 8.219187
69.735 8.390738
69.740 8.167371
69.745 7.654517
69.750 7.497517
69.755 7.615952
69.760 8.144463
69.765 7.896905
69.770 7.836245
69.775 7.781566
69.780 8.211762
69.785 8.729095
69.790 8.52179
69.795 7.967614
69.800 8.06481
69.805 8.494581
69.810 8.470399
69.815 7.896653
69.820 7.4531
69.825 7.473504
69.830 7.360542
69.835 7.060345
69.840 6.798527
69.845 6.681618
69.850 6.985089
69.855 7.328305
69.860 7.644411
69.865 8.329762
69.870 8.27202
69.875 8.365902
69.880 8.59492
69.885 8.537166
69.890 8.211912
69.895 8.094434
69.900 7.550682
69.905 7.467112
69.910 7.871799
69.915 7.766681
69.920 7.940869
69.925 8.187275
69.930 7.685194
69.935 8.222962
69.940 8.081823
69.945 7.984224
69.950 8.224159
69.955 8.068048
69.960 8.043715
69.965 8.810946
69.970 8.974011
69.975 8.8727
69.980 8.927095
69.985 8.740476
69.990 8.948466
69.995 9.0441
70.000 8.630882
70.005 8.568806
70.010 8.446829
70.015 8.269933
70.020 8.511143
70.025 8.362963
70.030 8.182521
70.035 7.891035
70.040 7.932461
70.045 8.046363
70.050 8.171563
70.055 7.810842
70.060 7.982469
70.065 8.001395
70.070 7.885677
70.075 7.957887
70.080 7.87018
70.085 7.546572
70.090 7.643178
70.095 7.908739
70.100 8.025064
70.105 8.113882
70.110 8.04485
70.115 8.136018
70.120 8.577468
70.125 8.648832
70.130 8.690985
70.135 8.660002
70.140 8.727601
70.145 9.198934
70.150 9.402228
70.155 9.080855
70.160 8.723199
70.165 8.664359
70.170 8.829585
70.175 8.780524
70.180 8.165816
70.185 8.009453
70.190 8.105393
70.195 8.000154
70.200 8.153517
70.205 8.277388
70.210 8.584449
70.215 8.758344
70.220 8.810087
70.225 8.723393
70.230 8.836899
70.235 8.791975
70.240 9.010569
70.245 8.963
70.250 9.220095
70.255 9.154065
70.260 9.48715
70.265 9.071744
70.270 9.119627
70.275 8.895299
70.280 8.786929
70.285 8.395243
70.290 8.31835
70.295 8.23548
70.300 8.943454
70.305 8.874471
70.310 9.137014
70.315 9.157165
70.320 9.534083
70.325 9.874749
70.330 9.935913
70.335 9.179559
70.340 8.735678
70.345 8.526297
70.350 8.445726
70.355 8.493194
70.360 8.664459
70.365 8.796947
70.370 9.274374
70.375 9.570362
70.380 9.547613
70.385 9.513774
70.390 9.464043
70.395 8.928341
70.400 8.733583
70.405 8.637005
70.410 8.516089
70.415 8.408843
70.420 8.240625
70.425 8.589328
70.430 8.718132
70.435 8.880631
70.440 8.59772
70.445 8.714746
70.450 8.77163
70.455 8.612777
70.460 8.020484
70.465 8.068465
70.470 7.987669
70.475 8.018473
70.480 8.021219
70.485 8.456322
70.490 8.659863
70.495 8.623607
70.500 8.727881
70.505 8.91995
70.510 9.294965
70.515 9.10057
70.520 8.956245
70.525 9.091432
70.530 9.27198
70.535 9.010095
70.540 9.338662
70.545 9.489471
70.550 9.862272
70.555 9.695522
70.560 9.163687
70.565 9.112779
70.570 9.188393
70.575 8.875305
70.580 8.58642
70.585 8.744679
70.590 8.873158
70.595 8.92874
70.600 8.76413
70.605 8.470986
70.610 8.49763
70.615 7.845746
70.620 7.51252
70.625 7.327734
70.630 7.827284
70.635 8.039974
70.640 8.45703
70.645 8.598867
70.650 9.536316
70.655 9.951341
70.660 10.076067
70.665 10.267562
70.670 10.092546
70.675 9.836413
70.680 9.478375
70.685 8.682332
70.690 8.33932
70.695 8.07416
70.700 7.491862
70.705 7.485568
70.710 7.25451
70.715 7.572483
70.720 8.38906
70.725 8.538301
70.730 8.992875
70.735 9.280971
70.740 8.938214
70.745 9.046258
70.750 8.916031
70.755 8.309599
70.760 8.517351
70.765 8.468186
70.770 8.366015
70.775 8.701667
70.780 8.846388
70.785 8.507432
70.790 8.957848
70.795 8.607149
70.800 8.512607
70.805 8.543494
70.810 8.441636
70.815 7.942643
70.820 8.403945
70.825 8.045364
70.830 7.950812
70.835 8.075755
70.840 7.995223
70.845 7.883973
70.850 7.906874
70.855 7.822039
70.860 8.145247
70.865 7.93463
70.870 7.914084
70.875 8.501418
70.880 8.582057
70.885 8.721678
70.890 8.252204
70.895 7.764336
70.900 7.744389
70.905 7.78475
70.910 8.053427
70.915 7.995789
70.920 8.016149
70.925 7.965808
70.930 8.064541
70.935 7.874985
70.940 7.367191
70.945 6.823166
70.950 7.191546
70.955 7.565502
70.960 7.92904
70.965 8.129745
70.970 8.453396
70.975 8.635161
70.980 8.587543
70.985 8.399293
70.990 8.217863
70.995 7.775426
71.000 7.632011
71.005 7.421405
71.010 7.342226
71.015 7.369339
71.020 6.971737
71.025 7.098937
71.030 7.326716
71.035 7.402397
71.040 7.248793
71.045 7.211926
71.050 7.617964
71.055 7.99694
71.060 7.919317
71.065 8.418719
71.070 8.499904
71.075 8.635594
71.080 8.36394
71.085 7.788589
71.090 7.707134
71.095 8.189888
71.100 7.936965
71.105 8.081471
71.110 8.234609
71.115 8.48227
71.120 8.622319
71.125 8.627346
71.130 8.337878
71.135 8.217495
71.140 8.027109
71.145 8.19924
71.150 8.405575
71.155 8.383561
71.160 8.028381
71.165 7.790136
71.170 8.041836
71.175 8.136969
71.180 8.079828
71.185 8.028032
71.190 7.651649
71.195 7.929833
71.200 7.459774
71.205 7.118512
71.210 7.111147
71.215 7.526557
71.220 7.600207
71.225 7.678971
71.230 7.753472
71.235 8.206687
71.240 8.395955
71.245 8.38708
71.250 8.146225
71.255 8.074945
71.260 8.124228
71.265 8.828057
71.270 8.68198
71.275 8.419695
71.280 8.247607
71.285 8.210086
71.290 8.804009
71.295 9.001564
71.300 8.44325
71.305 9.033276
71.310 9.087552
71.315 9.322128
71.320 9.585826
71.325 9.382599
71.330 9.27738
71.335 9.321179
71.340 9.122819
71.345 9.150686
71.350 8.900731
71.355 8.498128
71.360 8.317558
71.365 8.014302
71.370 7.843853
71.375 7.78653
71.380 7.689275
71.385 7.867041
71.390 8.391215
71.395 8.148039
71.400 7.886059
71.405 8.059304
71.410 8.036129
71.415 8.570336
71.420 8.491067
71.425 8.339611
71.430 8.523705
71.435 8.588204
71.440 8.852036
71.445 8.752148
71.450 8.455239
71.455 8.321158
71.460 8.441276
71.465 8.114643
71.470 7.980685
71.475 7.58146
71.480 7.381929
71.485 7.281397
71.490 7.323071
71.495 7.341033
71.500 7.555043
71.505 7.830279
71.510 8.070805
71.515 8.426723
71.520 8.479164
71.525 8.330543
71.530 8.908224
71.535 8.927182
71.540 8.893737
71.545 8.577734
71.550 8.587058
71.555 8.543828
71.560 8.380708
71.565 8.403439
71.570 8.518438
71.575 8.518271
71.580 8.698378
71.585 8.957745
71.590 9.184156
71.595 9.349936
71.600 9.305264
71.605 9.587271
71.610 9.680748
71.615 9.236252
71.620 9.015373
71.625 8.816543
71.630 8.742981
71.635 8.970982
71.640 8.745163
71.645 8.657745
71.650 8.690346
71.655 8.541473
71.660 8.194669
71.665 8.055811
71.670 7.559742
71.675 7.574795
71.680 7.371294
71.685 7.209906
71.690 7.254221
71.695 7.610684
71.700 7.970449
71.705 8.479121
71.710 8.591973
71.715 8.896545
71.720 8.895613
71.725 8.831021
71.730 8.60768
71.735 8.498691
71.740 8.267976
71.745 8.483485
71.750 8.323939
71.755 8.188869
71.760 8.100975
71.765 7.808495
71.770 7.443177
71.775 7.538953
71.780 7.380196
71.785 7.426497
71.790 7.732935
71.795 7.659384
71.800 7.796971
71.805 7.721195
71.810 7.291621
71.815 7.485444
71.820 7.522723
71.825 7.481084
71.830 7.510767
71.835 7.455616
71.840 7.388672
71.845 7.62348
71.850 7.630045
71.855 7.668222
71.860 7.660154
71.865 7.747537
71.870 8.040092
71.875 8.382703
71.880 8.736121
71.885 8.644889
71.890 9.021403
71.895 9.242253
71.900 9.235141
71.905 9.233397
71.910 9.002939
71.915 8.592188
71.920 8.634499
71.925 8.055588
71.930 7.922631
71.935 7.717248
71.940 7.866131
71.945 7.803877
71.950 7.664026
71.955 7.583673
71.960 7.668511
71.965 8.259079
71.970 8.655396
71.975 8.632137
71.980 9.272872
71.985 9.574423
71.990 9.746473
71.995 9.743749
72.000 9.014153
72.005 8.747374
72.010 8.041439
72.015 7.268686
72.020 7.204987
72.025 6.8383
72.030 6.833897
72.035 7.011195
72.040 6.99721
72.045 7.550085
72.050 7.69143
72.055 8.28248
72.060 8.622699
72.065 8.98989
72.070 9.115961
72.075 9.225168
72.080 8.896208
72.085 9.27052
72.090 9.549642
72.095 9.463512
72.100 9.623998
72.105 9.958042
72.110 10.01288
72.115 10.295834
72.120 9.562365
72.125 9.165956
72.130 8.928896
72.135 8.259141
72.140 7.769442
72.145 7.538504
72.150 7.473937
72.155 7.792831
72.160 7.842063
72.165 8.265049
72.170 8.52403
72.175 8.54049
72.180 8.464989
72.185 8.319267
72.190 8.235067
72.195 8.082018
72.200 7.734441
72.205 7.685667
72.210 7.84009
72.215 8.599604
72.220 8.743428
72.225 8.403101
72.230 8.445321
72.235 8.457844
72.240 8.707662
72.245 8.314847
72.250 7.643612
72.255 7.722094
72.260 7.915664
72.265 7.929499
72.270 8.005459
72.275 7.827128
72.280 8.086064
72.285 7.833148
72.290 8.078094
72.295 8.066662
72.300 7.971697
72.305 7.98851
72.310 7.826005
72.315 8.20313
72.320 8.073415
72.325 7.451529
72.330 7.274438
72.335 7.323996
72.340 7.516307
72.345 7.970337
72.350 7.706848
72.355 7.668542
72.360 7.97254
72.365 8.377086
72.370 8.345253
72.375 8.06084
72.380 7.497016
72.385 8.267978
72.390 8.769953
72.395 8.732565
72.400 8.37209
72.405 8.568234
72.410 8.945995
72.415 9.294013
72.420 9.14838
72.425 8.750341
72.430 8.81554
72.435 8.684446
72.440 8.466663
72.445 8.496267
72.450 8.341471
72.455 7.998492
72.460 8.013186
72.465 7.832706
72.470 8.248726
72.475 8.133001
72.480 8.235153
72.485 8.124433
72.490 7.874517
72.495 7.857791
72.500 7.737833
72.505 7.494782
72.510 7.293209
72.515 7.392662
72.520 7.349573
72.525 7.460481
72.530 7.612913
72.535 8.002274
72.540 8.531025
72.545 8.53772
72.550 8.731257
72.555 8.863263
72.560 9.205481
72.565 9.308185
72.570 9.201841
72.575 8.999969
72.580 8.971503
72.585 8.856611
72.590 9.104482
72.595 9.255323
72.600 9.383439
72.605 9.543751
72.610 9.531388
72.615 9.329523
72.620 9.090153
72.625 8.728927
72.630 8.275534
72.635 8.034562
72.640 7.744066
72.645 7.93251
72.650 7.808695
72.655 7.595583
72.660 7.045048
72.665 6.821576
72.670 6.653324
72.675 6.681798
72.680 6.654905
72.685 6.974582
72.690 7.832895
72.695 8.906235
72.700 8.924978
72.705 8.934071
72.710 8.859271
72.715 9.131378
72.720 9.279623
72.725 9.047583
72.730 9.128682
72.735 9.509624
72.740 9.224123
72.745 9.012859
72.750 8.696372
72.755 8.460864
72.760 8.426729
72.765 8.67811
72.770 8.505227
72.775 8.805044
72.780 8.589663
72.785 8.470691
72.790 8.541934
72.795 8.232095
72.800 8.281455
72.805 8.43954
72.810 8.608486
72.815 8.965721
72.820 9.061046
72.825 9.015253
72.830 8.880927
72.835 8.373346
72.840 8.253462
72.845 8.13654
72.850 7.759155
72.855 7.625008
72.860 7.666871
72.865 8.215924
72.870 8.364144
72.875 8.375965
72.880 8.359521
72.885 8.45872
72.890 8.620042
72.895 8.205352
72.900 7.931059
72.905 8.11487
72.910 8.310103
72.915 8.619167
72.920 8.826732
72.925 8.534877
72.930 8.658658
72.935 8.465002
72.940 8.48539
72.945 8.723742
72.950 8.390662
72.955 8.02242
72.960 8.159423
72.965 7.92575
72.970 8.205286
72.975 8.017954
72.980 7.94355
72.985 8.349831
72.990 8.694169
72.995 8.765484
73.000 8.627272
