!@!!GADDS PLOTSO FILE: Chi integration type
!@!!Title/SampleName: map-168
!@!!Comment: ?
!@!!User: Bruker Instrument Administrator
!@!!Site: University of Illinois Chicago
!@!!Frame: map-168_01_000.gfrm
!@!!Wavelengths    1.54184   1.54056   1.54439
!@!!Frame angles: 2Theta: 63.000 Omega: 50.000 Phi: 0.000 Chi: 90.000
!@!!Integration range: 2Theta: 53.000 to 73.000  Gamma: -105.000 to -75.000
!@!!Integration method: bin normalized
!@!N
!@!SS
!@!M
!@!L 0.0 0.0 0.0 0.0
!@!XDegrees
!@!YCounts
53.000 3.81079
53.005 3.363868
53.010 3.415821
53.015 3.208154
53.020 3.483421
53.025 3.349263
53.030 3.244547
53.035 3.349485
53.040 3.431952
53.045 3.671048
53.050 3.648709
53.055 3.358778
53.060 3.172045
53.065 3.269377
53.070 3.378448
53.075 3.386493
53.080 3.147711
53.085 3.175426
53.090 3.186812
53.095 3.248867
53.100 3.197359
53.105 3.239502
53.110 2.989663
53.115 3.072331
53.120 3.059266
53.125 3.362451
53.130 3.36311
53.135 3.42086
53.140 3.616639
53.145 3.889962
53.150 4.006629
53.155 4.058838
53.160 3.792942
53.165 3.684343
53.170 3.661686
53.175 3.624691
53.180 3.885104
53.185 3.94173
53.190 3.826897
53.195 3.828207
53.200 3.797167
53.205 3.927659
53.210 3.672289
53.215 3.374746
53.220 3.346042
53.225 3.72587
53.230 3.919108
53.235 3.73396
53.240 3.691248
53.245 3.726251
53.250 3.712245
53.255 3.69911
53.260 3.750558
53.265 3.65001
53.270 3.524662
53.275 3.436392
53.280 3.77721
53.285 3.981738
53.290 3.706815
53.295 3.463029
53.300 3.777484
53.305 3.833328
53.310 3.787286
53.315 3.456125
53.320 3.233938
53.325 3.408714
53.330 3.351782
53.335 3.268205
53.340 3.360931
53.345 3.290229
53.350 3.341268
53.355 3.33329
53.360 3.092203
53.365 2.913596
53.370 2.917937
53.375 3.036575
53.380 3.288544
53.385 3.268582
53.390 3.38526
53.395 3.716968
53.400 3.936353
53.405 3.731477
53.410 3.570846
53.415 3.301104
53.420 3.366993
53.425 3.486025
53.430 3.779694
53.435 3.829262
53.440 3.971127
53.445 3.956716
53.450 3.889363
53.455 3.981418
53.460 4.070308
53.465 3.802891
53.470 3.644208
53.475 3.672083
53.480 3.908302
53.485 4.144167
53.490 4.303378
53.495 4.065484
53.500 3.96558
53.505 3.851969
53.510 3.552854
53.515 3.279413
53.520 3.368824
53.525 2.945207
53.530 3.130762
53.535 3.322221
53.540 3.526488
53.545 3.535791
53.550 3.515084
53.555 3.226202
53.560 3.175195
53.565 3.298473
53.570 3.300714
53.575 3.523122
53.580 3.645383
53.585 3.730538
53.590 3.829005
53.595 3.675609
53.600 3.431802
53.605 3.455024
53.610 3.369009
53.615 3.308943
53.620 3.234225
53.625 3.268458
53.630 3.437263
53.635 3.505449
53.640 3.785656
53.645 3.835952
53.650 3.759154
53.655 3.807577
53.660 3.76521
53.665 3.897766
53.670 3.752385
53.675 3.525707
53.680 3.515805
53.685 3.526216
53.690 3.576862
53.695 3.356235
53.700 3.030584
53.705 2.813244
53.710 2.667516
53.715 2.83014
53.720 3.157356
53.725 3.3774
53.730 3.641787
53.735 3.763973
53.740 3.910425
53.745 3.932066
53.750 3.891927
53.755 3.741328
53.760 3.616252
53.765 3.849634
53.770 3.982534
53.775 3.816292
53.780 3.821443
53.785 3.873989
53.790 3.830202
53.795 3.646898
53.800 3.558657
53.805 3.67572
53.810 4.03068
53.815 3.862438
53.820 3.419409
53.825 3.185299
53.830 2.992159
53.835 2.613845
53.840 2.566936
53.845 2.355725
53.850 2.578699
53.855 2.952541
53.860 3.331566
53.865 3.696689
53.870 4.160423
53.875 4.142587
53.880 4.132533
53.885 3.992051
53.890 3.973662
53.895 3.973038
53.900 3.847232
53.905 3.694773
53.910 3.740902
53.915 3.897888
53.920 4.198862
53.925 4.167719
53.930 4.396914
53.935 4.32585
53.940 4.412206
53.945 4.483896
53.950 4.611067
53.955 4.347223
53.960 4.188245
53.965 3.724744
53.970 3.571443
53.975 3.595745
53.980 3.485654
53.985 3.206641
53.990 3.191836
53.995 3.510249
54.000 3.989541
54.005 4.139753
54.010 3.88302
54.015 3.839346
54.020 3.975815
54.025 4.214785
54.030 4.088331
54.035 3.934179
54.040 3.850795
54.045 4.004774
54.050 3.922016
54.055 3.818387
54.060 3.783647
54.065 3.698752
54.070 3.663331
54.075 3.551303
54.080 3.682958
54.085 3.718663
54.090 3.635462
54.095 3.620967
54.100 3.717227
54.105 3.863556
54.110 3.878394
54.115 3.654194
54.120 3.657378
54.125 3.576789
54.130 3.549419
54.135 3.685811
54.140 3.486275
54.145 3.67571
54.150 3.738759
54.155 3.625496
54.160 3.711545
54.165 3.632499
54.170 3.520657
54.175 3.46057
54.180 3.404672
54.185 3.558518
54.190 3.7407
54.195 3.590138
54.200 3.609081
54.205 3.584367
54.210 3.554967
54.215 3.457915
54.220 3.595732
54.225 3.601381
54.230 3.421353
54.235 3.378543
54.240 3.276421
54.245 3.624767
54.250 3.751609
54.255 3.51295
54.260 3.45562
54.265 3.767431
54.270 3.85244
54.275 3.862944
54.280 3.621872
54.285 3.142383
54.290 3.413077
54.295 3.790581
54.300 3.798028
54.305 3.815171
54.310 3.667262
54.315 3.853427
54.320 4.418474
54.325 4.314186
54.330 3.999135
54.335 3.976938
54.340 4.361379
54.345 4.45565
54.350 4.099744
54.355 3.618762
54.360 3.434241
54.365 3.397483
54.370 3.390603
54.375 3.241065
54.380 3.329261
54.385 3.610647
54.390 3.648564
54.395 3.583633
54.400 3.616853
54.405 3.196459
54.410 3.250347
54.415 3.398168
54.420 3.578311
54.425 3.731287
54.430 3.879694
54.435 4.15684
54.440 4.174731
54.445 3.880904
54.450 3.652117
54.455 3.6662
54.460 3.631295
54.465 3.495318
54.470 3.149081
54.475 3.240296
54.480 3.318611
54.485 3.131118
54.490 2.93948
54.495 2.987476
54.500 3.182184
54.505 3.083993
54.510 3.051347
54.515 3.208981
54.520 3.169414
54.525 3.077683
54.530 2.988659
54.535 2.760172
54.540 3.051634
54.545 3.074372
54.550 3.179143
54.555 3.41927
54.560 3.465989
54.565 3.497877
54.570 3.816869
54.575 3.762521
54.580 3.648994
54.585 3.285577
54.590 3.258189
54.595 3.284358
54.600 3.374698
54.605 3.271995
54.610 3.031903
54.615 3.110491
54.620 3.130563
54.625 2.978183
54.630 2.997627
54.635 2.900747
54.640 3.005561
54.645 3.549762
54.650 3.458529
54.655 3.557836
54.660 3.61207
54.665 3.730807
54.670 3.453501
54.675 3.161786
54.680 3.185565
54.685 3.573275
54.690 3.628703
54.695 3.88974
54.700 3.928446
54.705 4.025186
54.710 3.844694
54.715 3.712014
54.720 3.769116
54.725 3.771291
54.730 3.471545
54.735 3.527468
54.740 3.892138
54.745 4.155731
54.750 4.235981
54.755 4.038836
54.760 3.984742
54.765 3.979579
54.770 4.118963
54.775 3.960338
54.780 3.763752
54.785 3.862618
54.790 3.760753
54.795 3.837617
54.800 3.669397
54.805 3.468839
54.810 3.252703
54.815 3.147299
54.820 3.294258
54.825 3.374558
54.830 3.431551
54.835 3.523496
54.840 3.276598
54.845 3.493546
54.850 3.437759
54.855 3.284471
54.860 3.339695
54.865 3.31165
54.870 3.316466
54.875 3.455522
54.880 3.452329
54.885 3.236292
54.890 3.216957
54.895 3.198138
54.900 3.00181
54.905 3.03514
54.910 2.91761
54.915 3.072201
54.920 3.511639
54.925 3.722999
54.930 3.868011
54.935 4.22808
54.940 4.377054
54.945 4.385552
54.950 4.103203
54.955 3.652965
54.960 3.343847
54.965 3.188959
54.970 2.943387
54.975 2.850165
54.980 3.065227
54.985 3.249435
54.990 3.454899
54.995 3.409606
55.000 3.427593
55.005 3.598991
55.010 3.657616
55.015 3.339339
55.020 3.06144
55.025 2.968333
55.030 3.168813
55.035 3.243406
55.040 3.064561
55.045 2.823612
55.050 3.000217
55.055 3.207904
55.060 3.283001
55.065 3.0801
55.070 2.833312
55.075 2.954623
55.080 3.284168
55.085 3.22758
55.090 3.138108
55.095 2.967686
55.100 3.200785
55.105 3.68355
55.110 3.572825
55.115 3.715578
55.120 3.631272
55.125 3.819155
55.130 4.2976
55.135 3.915016
55.140 3.800149
55.145 3.540288
55.150 3.408486
55.155 3.516879
55.160 3.514141
55.165 3.327467
55.170 3.520713
55.175 3.74747
55.180 4.013176
55.185 4.237418
55.190 4.497084
55.195 4.323023
55.200 4.302073
55.205 4.164813
55.210 4.006713
55.215 3.881592
55.220 3.716954
55.225 3.338113
55.230 3.28953
55.235 3.353703
55.240 3.546901
55.245 3.646335
55.250 3.665369
55.255 3.355513
55.260 3.264042
55.265 3.363393
55.270 3.373874
55.275 3.279871
55.280 3.287498
55.285 3.729424
55.290 4.179728
55.295 4.292732
55.300 4.289976
55.305 4.162973
55.310 4.207755
55.315 4.269994
55.320 3.998958
55.325 4.005511
55.330 4.29103
55.335 4.351836
55.340 4.629311
55.345 4.412802
55.350 4.445218
55.355 4.66841
55.360 4.542302
55.365 4.256827
55.370 3.989107
55.375 3.629011
55.380 3.574778
55.385 3.210065
55.390 2.895453
55.395 3.114902
55.400 3.182776
55.405 3.483898
55.410 3.767997
55.415 4.050817
55.420 4.210548
55.425 4.372244
55.430 4.467141
55.435 4.523294
55.440 4.856494
55.445 4.922034
55.450 4.717515
55.455 4.535023
55.460 4.344205
55.465 4.142949
55.470 4.022573
55.475 3.693171
55.480 3.671659
55.485 3.704774
55.490 3.881537
55.495 3.608449
55.500 3.706043
55.505 3.709858
55.510 3.656627
55.515 3.640231
55.520 3.575963
55.525 3.437431
55.530 3.549623
55.535 3.428198
55.540 3.498834
55.545 3.246198
55.550 3.049044
55.555 2.985621
55.560 3.091474
55.565 3.192808
55.570 3.123722
55.575 3.148567
55.580 3.524927
55.585 3.859379
55.590 4.29611
55.595 4.06392
55.600 3.919534
55.605 3.950998
55.610 3.914998
55.615 3.973932
55.620 4.004735
55.625 3.857938
55.630 3.96603
55.635 4.139839
55.640 4.395281
55.645 4.508177
55.650 4.416233
55.655 4.383227
55.660 4.556353
55.665 4.628741
55.670 4.519739
55.675 4.345715
55.680 4.166778
55.685 4.072178
55.690 3.961698
55.695 4.027151
55.700 4.127898
55.705 4.061992
55.710 4.257109
55.715 4.369706
55.720 4.519425
55.725 4.388671
55.730 4.078752
55.735 3.908774
55.740 3.709902
55.745 3.636569
55.750 3.689744
55.755 3.429568
55.760 3.369775
55.765 3.349954
55.770 3.533289
55.775 3.484357
55.780 3.236498
55.785 3.141116
55.790 3.238252
55.795 3.532263
55.800 3.455473
55.805 3.497393
55.810 3.68091
55.815 3.846888
55.820 3.880645
55.825 3.70374
55.830 3.814375
55.835 4.051108
55.840 4.155783
55.845 4.46593
55.850 4.452383
55.855 4.511334
55.860 4.441765
55.865 4.036785
55.870 4.016501
55.875 3.806038
55.880 3.423587
55.885 3.396886
55.890 3.360116
55.895 3.508021
55.900 3.68104
55.905 3.882037
55.910 4.142437
55.915 4.253624
55.920 4.149373
55.925 4.238413
55.930 4.615307
55.935 4.746573
55.940 4.520485
55.945 4.548065
55.950 4.32752
55.955 4.615296
55.960 4.480819
55.965 4.138416
55.970 4.350588
55.975 4.447485
55.980 4.621723
55.985 4.795648
55.990 4.577528
55.995 4.986136
56.000 5.261084
56.005 5.006586
56.010 4.954209
56.015 4.89987
56.020 4.939103
56.025 4.962961
56.030 4.752018
56.035 4.772061
56.040 4.893829
56.045 4.59903
56.050 4.561585
56.055 4.44527
56.060 4.388217
56.065 4.277749
56.070 4.068311
56.075 4.100778
56.080 4.295781
56.085 4.252372
56.090 4.490697
56.095 4.6276
56.100 4.588245
56.105 4.460182
56.110 4.344268
56.115 4.468585
56.120 4.746894
56.125 4.790229
56.130 4.797849
56.135 4.878098
56.140 5.124619
56.145 4.976826
56.150 4.704902
56.155 4.309086
56.160 4.283542
56.165 4.251499
56.170 4.155286
56.175 3.973044
56.180 3.81196
56.185 3.70102
56.190 3.636162
56.195 3.269803
56.200 3.140553
56.205 3.017971
56.210 2.982803
56.215 2.966429
56.220 3.226667
56.225 3.337607
56.230 3.828458
56.235 4.044735
56.240 4.327136
56.245 4.688218
56.250 4.668072
56.255 4.351633
56.260 4.445439
56.265 4.201041
56.270 4.006826
56.275 3.84856
56.280 3.705648
56.285 4.215539
56.290 4.235416
56.295 4.144746
56.300 4.205225
56.305 4.166286
56.310 4.036932
56.315 4.031896
56.320 3.977733
56.325 3.936933
56.330 4.025175
56.335 4.561828
56.340 4.764104
56.345 4.796541
56.350 4.784707
56.355 4.687335
56.360 4.820318
56.365 4.466833
56.370 3.952334
56.375 4.059383
56.380 4.059296
56.385 4.195936
56.390 4.200225
56.395 4.105827
56.400 4.243297
56.405 4.152456
56.410 3.980966
56.415 3.680121
56.420 3.895651
56.425 3.891591
56.430 3.808789
56.435 3.728106
56.440 3.756811
56.445 3.554347
56.450 3.616559
56.455 3.698497
56.460 3.948351
56.465 4.115324
56.470 4.026639
56.475 4.01033
56.480 4.427763
56.485 4.357152
56.490 3.932812
56.495 3.732775
56.500 3.790468
56.505 4.13052
56.510 4.042835
56.515 3.783949
56.520 3.840204
56.525 4.058712
56.530 3.926275
56.535 3.653744
56.540 3.661187
56.545 4.077856
56.550 4.229323
56.555 4.405898
56.560 4.450092
56.565 4.641062
56.570 4.695602
56.575 4.604096
56.580 4.562114
56.585 4.502501
56.590 4.128063
56.595 3.667208
56.600 3.611813
56.605 3.631634
56.610 3.579709
56.615 3.543539
56.620 3.429043
56.625 3.60787
56.630 3.927594
56.635 3.916651
56.640 4.07743
56.645 4.249069
56.650 4.186156
56.655 4.30844
56.660 4.715745
56.665 4.526971
56.670 4.618103
56.675 4.431473
56.680 4.691808
56.685 4.953982
56.690 5.21515
56.695 4.987351
56.700 5.25476
56.705 5.371625
56.710 5.172923
56.715 4.925742
56.720 4.69844
56.725 4.35292
56.730 4.408136
56.735 4.345823
56.740 4.181512
56.745 4.377008
56.750 4.362619
56.755 4.404117
56.760 4.428368
56.765 4.137529
56.770 4.056672
56.775 4.237188
56.780 4.208859
56.785 4.002131
56.790 3.926534
56.795 3.971786
56.800 4.328932
56.805 4.733593
56.810 4.647271
56.815 4.635958
56.820 4.734108
56.825 4.733695
56.830 4.813909
56.835 4.577038
56.840 4.342567
56.845 4.121071
56.850 4.19884
56.855 4.297599
56.860 4.408183
56.865 4.540385
56.870 4.605892
56.875 4.770011
56.880 4.979928
56.885 4.814712
56.890 4.750771
56.895 4.54178
56.900 4.257177
56.905 3.895934
56.910 3.601788
56.915 3.391284
56.920 3.590824
56.925 3.818973
56.930 4.187865
56.935 4.327866
56.940 4.510822
56.945 4.948793
56.950 5.184709
56.955 5.20162
56.960 5.030567
56.965 4.675558
56.970 4.809053
56.975 5.084612
56.980 4.843755
56.985 4.771482
56.990 4.550473
56.995 4.544713
57.000 4.518772
57.005 4.635116
57.010 4.622141
57.015 4.453384
57.020 4.237108
57.025 4.030365
57.030 3.913633
57.035 4.037124
57.040 3.65711
57.045 3.475319
57.050 3.769488
57.055 4.00274
57.060 4.511331
57.065 4.914892
57.070 5.009882
57.075 5.586361
57.080 5.337256
57.085 5.092674
57.090 4.787761
57.095 4.555939
57.100 4.439802
57.105 4.298079
57.110 4.134324
57.115 4.601789
57.120 4.490877
57.125 4.494825
57.130 4.263412
57.135 4.162345
57.140 4.132733
57.145 4.074431
57.150 4.127354
57.155 4.311122
57.160 4.454662
57.165 5.036294
57.170 5.233807
57.175 5.318416
57.180 5.163647
57.185 4.960609
57.190 5.086736
57.195 5.198293
57.200 4.785832
57.205 4.637772
57.210 4.170108
57.215 3.809174
57.220 3.862271
57.225 3.921532
57.230 3.706162
57.235 3.546224
57.240 3.498494
57.245 3.680917
57.250 3.678639
57.255 3.230051
57.260 2.951051
57.265 3.006349
57.270 2.87024
57.275 2.633062
57.280 2.525003
57.285 2.659656
57.290 2.804979
57.295 2.923607
57.300 3.143141
57.305 3.360408
57.310 3.795758
57.315 4.194818
57.320 4.382719
57.325 4.680198
57.330 4.684624
57.335 4.700532
57.340 4.782265
57.345 4.667162
57.350 4.914493
57.355 4.880916
57.360 5.096039
57.365 5.205099
57.370 4.880139
57.375 4.674716
57.380 4.853617
57.385 4.879603
57.390 4.826648
57.395 4.288423
57.400 4.18846
57.405 4.763401
57.410 4.975816
57.415 4.507447
57.420 4.371431
57.425 4.84164
57.430 5.019337
57.435 4.777288
57.440 4.288879
57.445 4.233256
57.450 4.261791
57.455 4.006949
57.460 3.767443
57.465 3.894809
57.470 4.173331
57.475 4.018823
57.480 4.07229
57.485 4.250978
57.490 4.308502
57.495 4.130511
57.500 3.887433
57.505 3.621398
57.510 3.87321
57.515 3.79318
57.520 3.600188
57.525 3.641175
57.530 3.884073
57.535 4.155675
57.540 4.477579
57.545 4.401066
57.550 4.488353
57.555 4.541141
57.560 4.610427
57.565 4.420684
57.570 4.269242
57.575 4.359184
57.580 4.500269
57.585 4.64032
57.590 4.828933
57.595 4.567417
57.600 4.752904
57.605 4.666373
57.610 4.383464
57.615 4.243885
57.620 4.021378
57.625 3.666104
57.630 3.736968
57.635 3.483153
57.640 3.540698
57.645 3.562177
57.650 3.516732
57.655 3.731993
57.660 3.97946
57.665 4.024367
57.670 4.129349
57.675 4.213386
57.680 4.56015
57.685 4.63522
57.690 4.706931
57.695 5.187477
57.700 5.182024
57.705 5.240449
57.710 5.261999
57.715 5.167464
57.720 5.351771
57.725 5.080023
57.730 4.464324
57.735 4.716989
57.740 4.709853
57.745 4.686589
57.750 4.603454
57.755 4.350532
57.760 4.530693
57.765 4.856564
57.770 4.538833
57.775 4.520531
57.780 4.302344
57.785 4.423987
57.790 4.633959
57.795 4.568427
57.800 4.602633
57.805 4.687679
57.810 4.691148
57.815 4.91991
57.820 4.945514
57.825 4.94419
57.830 4.986226
57.835 4.901742
57.840 4.890902
57.845 4.829748
57.850 4.89713
57.855 5.152926
57.860 5.027762
57.865 4.82223
57.870 4.492584
57.875 4.713701
57.880 4.900323
57.885 4.787193
57.890 4.426433
57.895 4.514282
57.900 4.642466
57.905 4.914188
57.910 4.893545
57.915 4.628653
57.920 4.420403
57.925 4.512197
57.930 4.564544
57.935 4.511522
57.940 4.453211
57.945 4.172947
57.950 4.260071
57.955 4.440974
57.960 4.378154
57.965 4.432996
57.970 4.483901
57.975 4.315142
57.980 4.437876
57.985 4.362954
57.990 4.477714
57.995 4.597397
58.000 4.425087
58.005 4.472041
58.010 4.675918
58.015 5.047052
58.020 5.443501
58.025 5.264878
58.030 5.233326
58.035 5.24249
58.040 5.180591
58.045 4.934426
58.050 4.904712
58.055 4.879771
58.060 4.835342
58.065 4.614407
58.070 4.624338
58.075 4.474811
58.080 4.598748
58.085 4.320041
58.090 4.234507
58.095 4.43322
58.100 4.34294
58.105 4.774079
58.110 5.063359
58.115 4.966161
58.120 4.842268
58.125 4.651876
58.130 4.459075
58.135 4.652446
58.140 4.320656
58.145 4.281402
58.150 4.254205
58.155 4.662831
58.160 4.778474
58.165 4.977098
58.170 4.916893
58.175 5.032954
58.180 4.983721
58.185 5.522084
58.190 5.31964
58.195 5.067311
58.200 4.942338
58.205 4.959707
58.210 4.915069
58.215 5.129123
58.220 4.690371
58.225 4.791217
58.230 4.934261
58.235 4.82321
58.240 4.664492
58.245 4.31896
58.250 4.247023
58.255 4.253763
58.260 3.939843
58.265 4.00719
58.270 4.267129
58.275 4.536951
58.280 4.707698
58.285 4.636782
58.290 4.513709
58.295 4.702034
58.300 4.789108
58.305 4.589453
58.310 4.517849
58.315 4.383374
58.320 4.377701
58.325 4.329581
58.330 4.092285
58.335 3.829496
58.340 3.697805
58.345 3.845105
58.350 3.820507
58.355 3.849082
58.360 4.257239
58.365 4.677263
58.370 4.968504
58.375 5.124287
58.380 4.950792
58.385 4.902672
58.390 4.845225
58.395 4.509403
58.400 4.367853
58.405 4.308827
58.410 4.319497
58.415 4.350053
58.420 4.749737
58.425 4.624979
58.430 4.534512
58.435 4.42924
58.440 4.479459
58.445 4.53163
58.450 4.632691
58.455 4.418181
58.460 4.426172
58.465 4.188264
58.470 4.165444
58.475 4.279217
58.480 4.504031
58.485 4.543651
58.490 5.003019
58.495 5.427158
58.500 5.600935
58.505 5.51529
58.510 5.444095
58.515 5.114813
58.520 4.99037
58.525 4.437693
58.530 4.670096
58.535 4.837526
58.540 4.726222
58.545 4.381172
58.550 4.379047
58.555 4.613047
58.560 4.744525
58.565 4.590495
58.570 4.726192
58.575 4.996946
58.580 5.580453
58.585 5.69721
58.590 5.34609
58.595 5.489097
58.600 5.505918
58.605 5.310296
58.610 5.089815
58.615 4.71373
58.620 4.971871
58.625 5.249704
58.630 5.051342
58.635 4.860217
58.640 5.068172
58.645 5.120502
58.650 4.987123
58.655 4.78624
58.660 4.557094
58.665 4.573493
58.670 4.515368
58.675 4.359306
58.680 4.342517
58.685 4.616518
58.690 4.62203
58.695 4.901122
58.700 4.66597
58.705 4.823643
58.710 4.931849
58.715 4.684307
58.720 4.498345
58.725 4.568259
58.730 4.615197
58.735 4.854007
58.740 4.753016
58.745 4.808156
58.750 5.162673
58.755 5.282787
58.760 5.363775
58.765 5.151669
58.770 5.146632
58.775 5.047906
58.780 5.037553
58.785 4.992939
58.790 4.95341
58.795 4.962749
58.800 5.115477
58.805 5.039008
58.810 5.061141
58.815 4.92488
58.820 4.854266
58.825 4.70319
58.830 4.552174
58.835 4.468726
58.840 4.376849
58.845 4.446804
58.850 4.573527
58.855 4.589848
58.860 4.743835
58.865 4.870791
58.870 4.846714
58.875 5.13292
58.880 5.063904
58.885 4.662438
58.890 4.515586
58.895 4.349418
58.900 4.176067
58.905 4.240023
58.910 3.779278
58.915 4.106779
58.920 4.621161
58.925 4.730355
58.930 5.091207
58.935 5.489384
58.940 5.45157
58.945 5.958303
58.950 5.644911
58.955 5.503506
58.960 5.358848
58.965 5.076913
58.970 4.621036
58.975 4.536292
58.980 4.27702
58.985 4.279019
58.990 4.128807
58.995 4.401297
59.000 4.310914
59.005 4.34655
59.010 4.464766
59.015 4.90495
59.020 4.879818
59.025 5.100813
59.030 5.119097
59.035 5.274867
59.040 5.469109
59.045 5.303907
59.050 4.742618
59.055 4.791066
59.060 4.56282
59.065 4.343421
59.070 4.287656
59.075 4.251562
59.080 4.529952
59.085 4.546238
59.090 4.643318
59.095 4.828887
59.100 4.834431
59.105 4.93937
59.110 4.803183
59.115 4.645589
59.120 4.926168
59.125 4.741402
59.130 4.760643
59.135 4.71845
59.140 4.450562
59.145 4.650744
59.150 4.499584
59.155 4.362354
59.160 4.37009
59.165 4.228443
59.170 4.228065
59.175 4.037686
59.180 3.977487
59.185 4.330354
59.190 4.433255
59.195 4.230593
59.200 4.127348
59.205 4.371023
59.210 4.498013
59.215 4.342287
59.220 4.3766
59.225 4.226522
59.230 4.342424
59.235 4.421479
59.240 4.369543
59.245 4.718724
59.250 4.54255
59.255 4.510959
59.260 4.754362
59.265 4.847364
59.270 4.864925
59.275 4.789915
59.280 4.688531
59.285 4.814055
59.290 4.616932
59.295 4.598931
59.300 4.496357
59.305 4.548988
59.310 4.676655
59.315 4.798694
59.320 5.056643
59.325 5.484709
59.330 5.420218
59.335 5.444523
59.340 5.302251
59.345 5.260971
59.350 5.249609
59.355 4.697792
59.360 4.291966
59.365 4.145959
59.370 4.150487
59.375 4.288723
59.380 4.253536
59.385 4.000353
59.390 4.177628
59.395 4.32692
59.400 4.456871
59.405 4.536951
59.410 4.335789
59.415 4.23816
59.420 4.493905
59.425 4.356887
59.430 4.681988
59.435 4.688926
59.440 4.856691
59.445 5.016168
59.450 5.37201
59.455 5.415375
59.460 5.719524
59.465 5.631722
59.470 6.055135
59.475 6.29725
59.480 6.196658
59.485 5.661994
59.490 5.450778
59.495 5.187733
59.500 4.879054
59.505 4.442907
59.510 4.221934
59.515 4.11177
59.520 4.395189
59.525 4.280679
59.530 4.316288
59.535 4.333936
59.540 4.266554
59.545 4.240739
59.550 4.435359
59.555 4.640572
59.560 4.677521
59.565 4.675275
59.570 4.726108
59.575 4.919541
59.580 5.053267
59.585 4.994523
59.590 4.865334
59.595 5.020899
59.600 5.022792
59.605 4.979047
59.610 5.014806
59.615 4.969548
59.620 5.026413
59.625 5.212008
59.630 5.501761
59.635 5.540468
59.640 5.476169
59.645 5.298219
59.650 5.182135
59.655 5.083428
59.660 5.135869
59.665 4.821902
59.670 4.892035
59.675 4.956431
59.680 4.991191
59.685 4.950081
59.690 4.746454
59.695 4.976675
59.700 5.035979
59.705 5.202097
59.710 5.560151
59.715 5.629383
59.720 5.917757
59.725 6.025651
59.730 5.741758
59.735 5.760326
59.740 5.58464
59.745 5.160567
59.750 5.081032
59.755 4.923223
59.760 4.979137
59.765 4.966816
59.770 4.812136
59.775 4.870996
59.780 5.240283
59.785 5.409299
59.790 5.539844
59.795 5.280388
59.800 5.375872
59.805 5.573716
59.810 5.565986
59.815 5.264132
59.820 4.858408
59.825 4.863222
59.830 4.959085
59.835 4.724482
59.840 4.447354
59.845 4.269378
59.850 4.620666
59.855 5.028216
59.860 4.910382
59.865 5.051561
59.870 5.246575
59.875 5.211582
59.880 5.15887
59.885 4.708532
59.890 4.57639
59.895 4.319402
59.900 3.963312
59.905 4.007112
59.910 4.266294
59.915 4.366401
59.920 4.341702
59.925 4.571303
59.930 4.702023
59.935 4.797691
59.940 4.514285
59.945 4.203287
59.950 4.735163
59.955 5.093211
59.960 4.789536
59.965 4.787344
59.970 4.92557
59.975 4.795068
59.980 4.75788
59.985 4.165066
59.990 3.980238
59.995 4.227572
60.000 4.42385
60.005 4.353237
60.010 4.503892
60.015 4.522922
60.020 4.757919
60.025 4.7777
60.030 4.658849
60.035 4.739212
60.040 4.887045
60.045 5.610469
60.050 5.833834
60.055 5.75662
60.060 5.839358
60.065 5.732952
60.070 5.532056
60.075 5.335059
60.080 4.768416
60.085 5.049199
60.090 5.201706
60.095 5.082186
60.100 4.966714
60.105 4.98194
60.110 4.871435
60.115 4.481371
60.120 4.312208
60.125 4.251125
60.130 4.225864
60.135 4.406248
60.140 4.325604
60.145 4.728665
60.150 5.249044
60.155 5.319033
60.160 5.358575
60.165 5.207684
60.170 5.373416
60.175 5.635143
60.180 5.605246
60.185 5.364831
60.190 5.226562
60.195 4.99556
60.200 5.279127
60.205 5.200242
60.210 4.878139
60.215 4.702825
60.220 4.499107
60.225 4.739477
60.230 5.024797
60.235 4.728631
60.240 4.643555
60.245 4.951104
60.250 5.007133
60.255 4.988445
60.260 4.540408
60.265 4.50229
60.270 4.756133
60.275 4.99827
60.280 4.752724
60.285 4.812245
60.290 4.894608
60.295 4.94019
60.300 4.533776
60.305 4.435939
60.310 4.364756
60.315 4.432812
60.320 4.47122
60.325 4.6675
60.330 4.471138
60.335 4.775855
60.340 4.84403
60.345 5.158242
60.350 5.29598
60.355 5.259513
60.360 5.140122
60.365 5.321942
60.370 5.24581
60.375 5.16342
60.380 4.717351
60.385 4.587735
60.390 4.411087
60.395 4.459049
60.400 4.664565
60.405 4.537452
60.410 4.525156
60.415 4.717029
60.420 4.851688
60.425 4.950904
60.430 5.193706
60.435 5.162534
60.440 5.151276
60.445 5.149236
60.450 4.812459
60.455 4.737453
60.460 4.792246
60.465 4.539368
60.470 4.534917
60.475 4.416045
60.480 4.702671
60.485 5.152402
60.490 5.104737
60.495 4.999909
60.500 5.036648
60.505 5.045999
60.510 5.153139
60.515 4.872433
60.520 4.304614
60.525 4.308032
60.530 4.366658
60.535 4.26342
60.540 4.461323
60.545 4.505703
60.550 4.531962
60.555 4.648064
60.560 4.506463
60.565 4.41078
60.570 4.678505
60.575 4.797346
60.580 4.84165
60.585 5.075654
60.590 5.239573
60.595 5.513243
60.600 5.565423
60.605 5.441192
60.610 5.263299
60.615 5.075178
60.620 5.143799
60.625 5.180734
60.630 4.977781
60.635 5.020043
60.640 4.640882
60.645 4.618277
60.650 4.925515
60.655 4.658556
60.660 4.494953
60.665 4.615183
60.670 4.419998
60.675 4.601279
60.680 4.64243
60.685 4.735787
60.690 5.096323
60.695 5.713373
60.700 5.619359
60.705 5.87518
60.710 5.811766
60.715 5.629176
60.720 5.422555
60.725 4.815588
60.730 4.313059
60.735 4.339331
60.740 4.51365
60.745 4.454294
60.750 4.464586
60.755 4.568136
60.760 4.825152
60.765 4.98843
60.770 4.855045
60.775 4.622245
60.780 4.688408
60.785 4.764445
60.790 4.495145
60.795 4.34952
60.800 4.311713
60.805 4.396451
60.810 4.395224
60.815 4.364298
60.820 4.118478
60.825 4.182013
60.830 4.204642
60.835 4.180639
60.840 3.97967
60.845 3.835474
60.850 3.939702
60.855 4.355555
60.860 4.602488
60.865 4.866249
60.870 4.940473
60.875 5.09131
60.880 5.238062
60.885 5.309466
60.890 5.60568
60.895 5.609777
60.900 5.614908
60.905 5.596478
60.910 5.591564
60.915 5.381591
60.920 5.221732
60.925 4.736806
60.930 4.531264
60.935 4.252596
60.940 4.171283
60.945 4.321606
60.950 4.725282
60.955 4.637211
60.960 4.662474
60.965 4.731009
60.970 5.041867
60.975 5.01562
60.980 5.112031
60.985 5.175845
60.990 5.512218
60.995 5.494962
61.000 5.337841
61.005 5.210539
61.010 5.423999
61.015 5.366621
61.020 5.32916
61.025 5.102121
61.030 5.039373
61.035 5.035769
61.040 4.884036
61.045 4.920729
61.050 4.892633
61.055 5.197368
61.060 5.516541
61.065 5.879998
61.070 5.991496
61.075 6.103487
61.080 5.88334
61.085 5.83554
61.090 5.4924
61.095 5.083973
61.100 5.00334
61.105 4.861933
61.110 4.727221
61.115 4.865022
61.120 4.801142
61.125 4.929204
61.130 4.802622
61.135 4.85564
61.140 5.073729
61.145 5.152945
61.150 4.978046
61.155 4.855821
61.160 5.151562
61.165 5.608757
61.170 5.595961
61.175 5.653962
61.180 5.501796
61.185 5.641003
61.190 5.664659
61.195 5.234546
61.200 4.995022
61.205 5.04245
61.210 5.043342
61.215 5.485356
61.220 5.394133
61.225 5.413704
61.230 5.526847
61.235 5.568822
61.240 5.605853
61.245 5.72723
61.250 5.43445
61.255 5.859458
61.260 5.840268
61.265 6.084849
61.270 5.98197
61.275 5.921621
61.280 5.450022
61.285 5.510016
61.290 5.336349
61.295 5.246318
61.300 4.862652
61.305 4.877924
61.310 4.743678
61.315 4.948263
61.320 5.049728
61.325 5.141969
61.330 5.336739
61.335 5.260379
61.340 5.454391
61.345 5.471392
61.350 5.509627
61.355 5.36863
61.360 5.012868
61.365 5.089274
61.370 5.256019
61.375 4.994915
61.380 4.928609
61.385 4.856592
61.390 5.005013
61.395 5.01233
61.400 4.922066
61.405 4.994066
61.410 4.884236
61.415 4.841376
61.420 4.759633
61.425 4.773599
61.430 4.886601
61.435 4.626557
61.440 4.456087
61.445 4.693798
61.450 5.071946
61.455 5.202693
61.460 4.611413
61.465 4.804025
61.470 5.345632
61.475 5.501089
61.480 5.479538
61.485 5.357485
61.490 5.314104
61.495 5.377743
61.500 5.118851
61.505 4.937792
61.510 4.988593
61.515 4.804131
61.520 4.810279
61.525 4.843863
61.530 5.15697
61.535 5.110374
61.540 4.92174
61.545 4.900111
61.550 5.005325
61.555 4.837404
61.560 4.988786
61.565 4.934761
61.570 4.846619
61.575 4.835191
61.580 4.488691
61.585 4.574966
61.590 4.721876
61.595 4.654294
61.600 4.89468
61.605 4.975991
61.610 5.28602
61.615 5.85805
61.620 5.90217
61.625 5.883918
61.630 5.795263
61.635 5.705389
61.640 5.779405
61.645 5.620872
61.650 5.137887
61.655 4.848678
61.660 4.655905
61.665 4.505064
61.670 4.354971
61.675 4.424266
61.680 4.237115
61.685 4.379749
61.690 4.349022
61.695 4.624875
61.700 4.774844
61.705 4.542372
61.710 4.615441
61.715 4.795637
61.720 4.866635
61.725 4.843667
61.730 4.625056
61.735 4.603964
61.740 4.761199
61.745 4.612445
61.750 4.683229
61.755 4.878821
61.760 5.078873
61.765 5.511837
61.770 5.823057
61.775 5.79658
61.780 5.832952
61.785 5.483415
61.790 5.144057
61.795 4.94733
61.800 4.50088
61.805 4.33595
61.810 4.237496
61.815 4.242343
61.820 4.371048
61.825 4.662932
61.830 4.815887
61.835 5.08953
61.840 5.089305
61.845 5.057257
61.850 5.096016
61.855 5.072988
61.860 5.126294
61.865 5.286376
61.870 5.157456
61.875 5.438416
61.880 5.574074
61.885 5.506072
61.890 5.486773
61.895 5.38196
61.900 5.661059
61.905 6.240897
61.910 6.226734
61.915 6.38378
61.920 6.76267
61.925 7.120459
61.930 7.030525
61.935 6.393754
61.940 6.012173
61.945 6.091656
61.950 6.03565
61.955 5.681329
61.960 5.207541
61.965 5.237128
61.970 5.11962
61.975 4.915875
61.980 4.842912
61.985 4.87302
61.990 5.000725
61.995 5.512172
62.000 5.891759
62.005 6.391543
62.010 6.572861
62.015 6.496588
62.020 6.346458
62.025 6.287384
62.030 5.932335
62.035 5.496158
62.040 5.27371
62.045 4.776214
62.050 4.712802
62.055 4.684006
62.060 4.835997
62.065 4.861484
62.070 4.742654
62.075 4.546484
62.080 5.060896
62.085 5.261583
62.090 5.324892
62.095 5.508537
62.100 5.261408
62.105 5.624802
62.110 6.027282
62.115 5.800857
62.120 5.497066
62.125 5.378034
62.130 5.241639
62.135 5.330836
62.140 5.313631
62.145 5.047835
62.150 4.952857
62.155 5.394815
62.160 5.762585
62.165 6.151982
62.170 6.219452
62.175 6.027157
62.180 6.242077
62.185 6.297783
62.190 5.760815
62.195 5.392447
62.200 5.12889
62.205 5.009712
62.210 4.777724
62.215 4.613405
62.220 4.747668
62.225 4.831569
62.230 4.80436
62.235 4.665471
62.240 5.044874
62.245 5.245155
62.250 5.334833
62.255 5.387718
62.260 5.506291
62.265 5.517803
62.270 5.713721
62.275 5.394757
62.280 5.256608
62.285 5.148318
62.290 5.158825
62.295 5.425755
62.300 5.295288
62.305 5.177586
62.310 5.306111
62.315 5.437038
62.320 5.093536
62.325 4.912722
62.330 4.754568
62.335 4.786526
62.340 4.750235
62.345 4.860802
62.350 5.026014
62.355 5.31717
62.360 5.387102
62.365 5.404225
62.370 5.623703
62.375 5.4752
62.380 5.249027
62.385 5.348895
62.390 5.531832
62.395 5.866614
62.400 5.958719
62.405 5.866674
62.410 6.176876
62.415 5.922084
62.420 5.821717
62.425 5.749444
62.430 5.224566
62.435 5.245432
62.440 5.281579
62.445 5.455061
62.450 5.737405
62.455 5.580005
62.460 5.346487
62.465 5.455231
62.470 5.585155
62.475 5.623249
62.480 5.605978
62.485 5.430191
62.490 5.789772
62.495 5.930767
62.500 5.851284
62.505 5.506735
62.510 5.417068
62.515 5.265079
62.520 5.40876
62.525 4.993068
62.530 5.20182
62.535 5.256512
62.540 5.388387
62.545 5.50407
62.550 5.497019
62.555 5.717717
62.560 5.932505
62.565 5.799494
62.570 5.797764
62.575 5.616063
62.580 5.597142
62.585 5.671428
62.590 5.627705
62.595 5.466718
62.600 5.628426
62.605 5.886797
62.610 6.114537
62.615 6.013351
62.620 5.952948
62.625 6.086553
62.630 6.147527
62.635 6.180736
62.640 6.023384
62.645 6.107298
62.650 6.262977
62.655 6.207145
62.660 6.074241
62.665 6.114132
62.670 5.957814
62.675 6.018824
62.680 5.95141
62.685 6.123114
62.690 6.391795
62.695 6.406015
62.700 6.238593
62.705 6.427896
62.710 6.588855
62.715 6.558372
62.720 6.493663
62.725 6.462096
62.730 6.542668
62.735 6.683885
62.740 6.411917
62.745 6.203968
62.750 6.20671
62.755 6.190947
62.760 6.255277
62.765 6.495419
62.770 6.628486
62.775 7.153156
62.780 7.465051
62.785 7.404442
62.790 7.197373
62.795 7.092947
62.800 6.968934
62.805 6.947112
62.810 6.596067
62.815 6.371551
62.820 6.564561
62.825 6.545363
62.830 6.411693
62.835 6.419263
62.840 6.089802
62.845 5.929738
62.850 5.62867
62.855 5.321637
62.860 5.596956
62.865 5.757187
62.870 5.476209
62.875 5.529226
62.880 5.439788
62.885 5.523289
62.890 5.305974
62.895 5.051656
62.900 5.031073
62.905 5.190839
62.910 5.204568
62.915 5.214186
62.920 5.334849
62.925 5.507337
62.930 5.63723
62.935 5.456733
62.940 5.213472
62.945 4.998884
62.950 4.990541
62.955 4.981328
62.960 4.961319
62.965 4.875078
62.970 4.961756
62.975 5.085093
62.980 5.22944
62.985 5.35844
62.990 5.502508
62.995 5.553891
63.000 5.822737
63.005 5.820796
63.010 5.81688
63.015 5.880037
63.020 5.589884
63.025 5.762339
63.030 5.54619
63.035 5.308746
63.040 5.457242
63.045 5.272164
63.050 5.434771
63.055 5.663675
63.060 5.470229
63.065 5.998507
63.070 5.998506
63.075 5.63519
63.080 5.606273
63.085 5.571149
63.090 5.694673
63.095 5.517752
63.100 5.113237
63.105 5.07939
63.110 5.540889
63.115 5.987108
63.120 5.847728
63.125 5.688044
63.130 5.901471
63.135 5.890844
63.140 5.66533
63.145 5.397567
63.150 5.101627
63.155 5.212289
63.160 5.212848
63.165 5.42109
63.170 5.520288
63.175 5.806967
63.180 5.953162
63.185 6.046152
63.190 5.858823
63.195 5.702647
63.200 5.540675
63.205 5.414466
63.210 5.349232
63.215 5.157533
63.220 5.077515
63.225 5.485334
63.230 5.444738
63.235 5.274916
63.240 5.179088
63.245 5.171735
63.250 5.472992
63.255 5.699369
63.260 5.761935
63.265 5.849936
63.270 5.72876
63.275 5.863462
63.280 5.741014
63.285 5.733236
63.290 5.819176
63.295 5.374194
63.300 5.40513
63.305 5.751039
63.310 6.12698
63.315 6.424135
63.320 5.996378
63.325 5.961319
63.330 5.894825
63.335 5.982006
63.340 6.036369
63.345 5.769809
63.350 5.466074
63.355 5.297678
63.360 4.974397
63.365 5.322792
63.370 5.29529
63.375 4.819718
63.380 5.055176
63.385 5.464771
63.390 5.670118
63.395 5.993898
63.400 5.957514
63.405 6.06178
63.410 6.352674
63.415 6.333701
63.420 6.439976
63.425 6.574325
63.430 6.579013
63.435 6.493805
63.440 6.358413
63.445 6.15681
63.450 5.977753
63.455 5.694146
63.460 5.491509
63.465 5.643844
63.470 5.992393
63.475 6.225068
63.480 6.568153
63.485 6.566675
63.490 6.247665
63.495 6.042989
63.500 5.543715
63.505 5.235539
63.510 4.955083
63.515 4.695635
63.520 4.581312
63.525 5.089984
63.530 5.563536
63.535 6.055559
63.540 5.978209
63.545 5.985279
63.550 5.747326
63.555 5.725736
63.560 5.349617
63.565 5.097962
63.570 4.69742
63.575 4.969641
63.580 5.065751
63.585 5.179874
63.590 5.101642
63.595 5.318753
63.600 5.262814
63.605 5.136899
63.610 4.850753
63.615 5.277322
63.620 5.378236
63.625 5.520128
63.630 5.640706
63.635 5.790852
63.640 5.982616
63.645 6.001452
63.650 5.80215
63.655 5.833799
63.660 5.701635
63.665 5.545161
63.670 5.535055
63.675 5.582607
63.680 5.498569
63.685 5.125922
63.690 4.956841
63.695 5.244317
63.700 5.295204
63.705 5.117752
63.710 4.961031
63.715 5.172445
63.720 5.394442
63.725 5.64656
63.730 5.682434
63.735 5.701465
63.740 5.722629
63.745 5.601899
63.750 5.404793
63.755 5.041305
63.760 4.707277
63.765 4.487073
63.770 4.60499
63.775 4.598469
63.780 4.621175
63.785 4.657942
63.790 5.216972
63.795 5.674888
63.800 5.495083
63.805 5.068703
63.810 5.067841
63.815 5.253593
63.820 5.129907
63.825 4.770987
63.830 4.861383
63.835 5.2338
63.840 5.419682
63.845 5.760902
63.850 5.805321
63.855 6.146636
63.860 6.284642
63.865 6.006088
63.870 5.753387
63.875 5.766675
63.880 5.650764
63.885 5.530288
63.890 5.515545
63.895 5.431623
63.900 5.511227
63.905 5.504841
63.910 5.496646
63.915 5.526973
63.920 5.462759
63.925 5.589201
63.930 5.689748
63.935 5.94638
63.940 6.27625
63.945 6.262533
63.950 6.318138
63.955 6.583914
63.960 6.175529
63.965 5.819731
63.970 5.578685
63.975 5.403256
63.980 5.196119
63.985 4.974538
63.990 4.844981
63.995 4.974182
64.000 5.198703
64.005 5.000187
64.010 5.459461
64.015 6.008135
64.020 6.550262
64.025 6.865448
64.030 6.712761
64.035 6.559888
64.040 6.557977
64.045 5.846761
64.050 5.515269
64.055 5.004762
64.060 4.759325
64.065 5.016311
64.070 5.147848
64.075 5.076518
64.080 5.0795
64.085 5.381271
64.090 5.575421
64.095 5.769681
64.100 5.807515
64.105 5.848452
64.110 5.969851
64.115 5.883304
64.120 5.513794
64.125 5.240922
64.130 4.679153
64.135 4.619268
64.140 4.734632
64.145 4.819356
64.150 5.088084
64.155 5.13676
64.160 5.443876
64.165 5.88341
64.170 6.212274
64.175 6.176229
64.180 6.043135
64.185 6.205933
64.190 6.714264
64.195 6.662237
64.200 6.485847
64.205 6.286621
64.210 6.29697
64.215 6.434006
64.220 6.121451
64.225 5.99203
64.230 6.223284
64.235 6.402278
64.240 6.194522
64.245 5.966813
64.250 5.838198
64.255 5.910183
64.260 6.07316
64.265 6.328566
64.270 6.138942
64.275 6.178986
64.280 6.430296
64.285 6.729252
64.290 6.514433
64.295 6.260362
64.300 5.935253
64.305 6.095362
64.310 6.316326
64.315 6.211763
64.320 6.149381
64.325 6.391332
64.330 6.278324
64.335 6.365824
64.340 6.156624
64.345 5.977276
64.350 5.976675
64.355 5.809906
64.360 5.518416
64.365 5.398805
64.370 5.385367
64.375 5.610428
64.380 5.75486
64.385 5.650856
64.390 5.775009
64.395 5.992157
64.400 5.832561
64.405 5.823057
64.410 5.914546
64.415 5.719563
64.420 5.748476
64.425 5.873726
64.430 6.091704
64.435 6.444008
64.440 6.568838
64.445 6.677185
64.450 6.955586
64.455 6.944856
64.460 6.673102
64.465 6.355405
64.470 5.986249
64.475 5.51294
64.480 5.444031
64.485 5.622267
64.490 5.835255
64.495 5.851068
64.500 5.926748
64.505 6.389563
64.510 6.83917
64.515 6.526399
64.520 6.31054
64.525 6.374672
64.530 6.839537
64.535 6.969936
64.540 6.442259
64.545 6.276417
64.550 6.483716
64.555 6.331542
64.560 6.138847
64.565 5.892599
64.570 5.645296
64.575 6.037139
64.580 6.346128
64.585 6.673707
64.590 6.730858
64.595 6.469917
64.600 6.442484
64.605 6.690943
64.610 6.456882
64.615 5.964623
64.620 5.704807
64.625 5.786854
64.630 5.994991
64.635 5.932402
64.640 5.852368
64.645 5.71949
64.650 5.796144
64.655 5.838533
64.660 5.922705
64.665 5.961682
64.670 5.9753
64.675 6.034344
64.680 6.496531
64.685 6.528533
64.690 6.25607
64.695 6.20642
64.700 6.119436
64.705 6.154913
64.710 5.961476
64.715 5.757878
64.720 5.870149
64.725 5.978782
64.730 6.109609
64.735 5.881226
64.740 5.922025
64.745 5.944234
64.750 5.898425
64.755 5.883435
64.760 6.106508
64.765 6.359374
64.770 6.653445
64.775 6.584219
64.780 6.400389
64.785 6.551394
64.790 6.228618
64.795 6.114938
64.800 5.815807
64.805 5.718488
64.810 6.263799
64.815 6.33875
64.820 6.12853
64.825 6.400501
64.830 6.178982
64.835 6.029342
64.840 6.237453
64.845 5.982699
64.850 6.023426
64.855 6.279423
64.860 6.319532
64.865 6.56158
64.870 6.7879
64.875 6.259167
64.880 6.284715
64.885 6.621033
64.890 6.455411
64.895 6.389215
64.900 6.054254
64.905 5.845462
64.910 6.280208
64.915 6.061046
64.920 5.956292
64.925 6.408005
64.930 6.444625
64.935 6.546593
64.940 6.723199
64.945 6.341929
64.950 6.220295
64.955 5.859094
64.960 5.595028
64.965 5.521873
64.970 5.381653
64.975 5.404809
64.980 5.476337
64.985 5.865628
64.990 6.057471
64.995 5.959396
65.000 6.112879
65.005 6.54324
65.010 6.773013
65.015 7.127639
65.020 7.189674
65.025 7.220945
65.030 7.184049
65.035 7.204428
65.040 6.865665
65.045 6.957568
65.050 6.729076
65.055 6.499113
65.060 6.716014
65.065 6.655909
65.070 6.709677
65.075 7.095596
65.080 6.817207
65.085 7.017553
65.090 7.2437
65.095 6.987523
65.100 7.360456
65.105 7.692558
65.110 7.614769
65.115 7.548585
65.120 7.238502
65.125 6.970049
65.130 7.02972
65.135 6.76702
65.140 6.595022
65.145 6.717332
65.150 6.742647
65.155 6.836985
65.160 6.885745
65.165 6.915168
65.170 7.026381
65.175 6.870037
65.180 6.306334
65.185 6.57508
65.190 6.601424
65.195 6.646469
65.200 6.53903
65.205 6.290085
65.210 6.381363
65.215 6.499399
65.220 6.176733
65.225 6.176211
65.230 5.989845
65.235 5.769195
65.240 5.724994
65.245 5.694484
65.250 5.863974
65.255 5.88149
65.260 5.842853
65.265 6.154283
65.270 6.697478
65.275 6.669523
65.280 6.423633
65.285 6.292797
65.290 6.667356
65.295 6.592058
65.300 6.197589
65.305 5.821293
65.310 5.845817
65.315 6.215967
65.320 6.236267
65.325 5.948478
65.330 5.802427
65.335 6.14127
65.340 6.326381
65.345 6.262863
65.350 6.26173
65.355 6.573614
65.360 6.62098
65.365 6.948387
65.370 6.568207
65.375 6.52517
65.380 6.485459
65.385 6.105747
65.390 5.712771
65.395 5.788064
65.400 5.80946
65.405 5.82306
65.410 5.720902
65.415 5.905581
65.420 6.149094
65.425 6.494053
65.430 6.364042
65.435 6.5281
65.440 6.715487
65.445 7.060636
65.450 7.028957
65.455 7.081913
65.460 6.772358
65.465 6.985304
65.470 6.709121
65.475 6.409498
65.480 6.025261
65.485 5.707433
65.490 5.4512
65.495 5.498309
65.500 5.513467
65.505 5.837924
65.510 5.805441
65.515 5.791862
65.520 5.842218
65.525 6.218878
65.530 6.304025
65.535 5.934048
65.540 5.475265
65.545 5.858976
65.550 6.35326
65.555 6.773964
65.560 6.606379
65.565 6.401883
65.570 6.568357
65.575 6.978199
65.580 6.830689
65.585 6.567977
65.590 6.370003
65.595 6.435943
65.600 6.332011
65.605 6.435396
65.610 6.519324
65.615 6.584297
65.620 6.485645
65.625 6.692215
65.630 6.696057
65.635 6.874204
65.640 6.856075
65.645 6.834392
65.650 6.872015
65.655 6.90406
65.660 6.466797
65.665 6.383399
65.670 6.139168
65.675 5.930038
65.680 5.93781
65.685 6.16617
65.690 6.242244
65.695 6.470945
65.700 6.504272
65.705 6.736902
65.710 6.767482
65.715 6.591905
65.720 6.166102
65.725 5.881859
65.730 5.736442
65.735 5.924988
65.740 6.194777
65.745 6.106722
65.750 6.036922
65.755 6.659457
65.760 6.942913
65.765 7.10821
65.770 7.029507
65.775 6.828383
65.780 6.92768
65.785 7.083595
65.790 6.490929
65.795 6.721408
65.800 6.975421
65.805 7.012601
65.810 6.908855
65.815 7.099905
65.820 6.955834
65.825 6.843757
65.830 6.464931
65.835 6.535021
65.840 6.436596
65.845 6.605569
65.850 6.238079
65.855 6.213202
65.860 6.430297
65.865 6.109424
65.870 6.013975
65.875 6.070155
65.880 5.813813
65.885 5.608642
65.890 5.382032
65.895 5.626136
65.900 5.936707
65.905 5.667092
65.910 5.49642
65.915 5.47627
65.920 5.614253
65.925 6.057899
65.930 6.015766
65.935 5.920642
65.940 5.722942
65.945 5.883749
65.950 5.895115
65.955 6.043425
65.960 6.107619
65.965 6.279179
65.970 6.319695
65.975 6.541487
65.980 6.847788
65.985 7.086192
65.990 6.743946
65.995 6.372719
66.000 5.857517
66.005 5.819294
66.010 5.761244
66.015 5.661753
66.020 5.829177
66.025 6.369026
66.030 6.593555
66.035 7.187119
66.040 7.426354
66.045 7.212158
66.050 6.899308
66.055 6.572538
66.060 6.373777
66.065 6.47244
66.070 6.24355
66.075 6.258995
66.080 6.513823
66.085 6.415731
66.090 6.473782
66.095 6.273498
66.100 6.19945
66.105 6.156384
66.110 5.920936
66.115 5.617595
66.120 5.709332
66.125 5.616821
66.130 5.69775
66.135 5.897749
66.140 5.813009
66.145 6.264143
66.150 6.781887
66.155 6.845831
66.160 6.831848
66.165 6.613209
66.170 6.244746
66.175 6.240808
66.180 5.908409
66.185 5.814641
66.190 5.935936
66.195 6.465188
66.200 6.667335
66.205 6.562593
66.210 6.623767
66.215 7.091234
66.220 7.08004
66.225 6.904538
66.230 6.528537
66.235 6.703738
66.240 6.635947
66.245 6.542378
66.250 6.262908
66.255 6.325579
66.260 6.590743
66.265 6.61182
66.270 6.32484
66.275 6.621154
66.280 6.618773
66.285 6.656571
66.290 6.736057
66.295 6.498728
66.300 6.336503
66.305 6.32656
66.310 6.275865
66.315 6.14588
66.320 6.192673
66.325 6.347179
66.330 6.618797
66.335 6.854002
66.340 6.914505
66.345 6.99808
66.350 7.091293
66.355 6.819825
66.360 6.562996
66.365 6.321915
66.370 6.307556
66.375 6.56466
66.380 6.407676
66.385 6.012409
66.390 5.79164
66.395 5.853858
66.400 5.918893
66.405 6.026571
66.410 5.791322
66.415 5.91473
66.420 6.062378
66.425 6.475064
66.430 6.328132
66.435 6.328582
66.440 6.406319
66.445 6.51076
66.450 6.221878
66.455 6.40596
66.460 6.367576
66.465 6.312964
66.470 6.175431
66.475 5.875724
66.480 5.991058
66.485 6.224299
66.490 6.017169
66.495 5.713228
66.500 5.820422
66.505 5.584427
66.510 5.767514
66.515 5.692132
66.520 5.56796
66.525 5.776053
66.530 6.011961
66.535 6.021563
66.540 6.35696
66.545 6.006444
66.550 6.04908
66.555 6.494285
66.560 6.296867
66.565 6.10642
66.570 6.235673
66.575 6.107416
66.580 6.160442
66.585 6.422515
66.590 6.489476
66.595 6.824428
66.600 7.214446
66.605 7.086081
66.610 7.027855
66.615 7.133016
66.620 6.801152
66.625 6.392763
66.630 6.253309
66.635 6.19813
66.640 6.522494
66.645 6.799194
66.650 6.921068
66.655 6.861961
66.660 6.579247
66.665 6.304945
66.670 6.021397
66.675 5.735854
66.680 5.725638
66.685 5.528741
66.690 5.682263
66.695 6.040732
66.700 6.047039
66.705 5.935407
66.710 5.850467
66.715 5.628006
66.720 5.54958
66.725 5.399181
66.730 5.418622
66.735 5.44601
66.740 5.668323
66.745 5.78934
66.750 5.539918
66.755 5.685198
66.760 5.634951
66.765 5.262269
66.770 5.107519
66.775 4.945122
66.780 4.766447
66.785 4.901155
66.790 4.514198
66.795 4.700702
66.800 4.96381
66.805 4.908165
66.810 4.910388
66.815 5.180623
66.820 5.090543
66.825 5.579783
66.830 5.72373
66.835 6.082407
66.840 6.283643
66.845 6.186091
66.850 5.922082
66.855 5.933886
66.860 5.784488
66.865 5.756101
66.870 5.627285
66.875 5.735473
66.880 6.016698
66.885 6.185289
66.890 6.437327
66.895 6.331532
66.900 6.375866
66.905 6.235273
66.910 6.17183
66.915 6.005748
66.920 6.002381
66.925 5.953389
66.930 6.076274
66.935 5.786971
66.940 5.756896
66.945 5.65984
66.950 5.675029
66.955 5.722685
66.960 5.904102
66.965 6.038302
66.970 6.114402
66.975 6.19388
66.980 6.382101
66.985 6.189002
66.990 6.189978
66.995 5.978918
67.000 5.715718
67.005 6.094274
67.010 6.51199
67.015 6.416097
67.020 6.554595
67.025 6.542479
67.030 6.568573
67.035 6.480386
67.040 5.943369
67.045 5.952183
67.050 6.383186
67.055 6.568513
67.060 6.701604
67.065 6.603918
67.070 6.540905
67.075 6.57838
67.080 6.377091
67.085 6.136688
67.090 6.272755
67.095 6.2609
67.100 6.39169
67.105 6.265649
67.110 6.241078
67.115 6.17023
67.120 6.006837
67.125 6.00256
67.130 6.184484
67.135 6.023943
67.140 6.117341
67.145 6.142843
67.150 5.80309
67.155 5.564146
67.160 5.31661
67.165 5.439549
67.170 5.803005
67.175 5.884526
67.180 6.015433
67.185 6.404029
67.190 6.61354
67.195 6.453959
67.200 6.037152
67.205 5.560819
67.210 5.763359
67.215 5.448061
67.220 5.219728
67.225 5.319255
67.230 5.202829
67.235 5.260216
67.240 5.321864
67.245 5.416979
67.250 5.525567
67.255 5.569859
67.260 5.818524
67.265 5.9472
67.270 6.062225
67.275 6.34042
67.280 6.320206
67.285 6.526872
67.290 6.417515
67.295 6.289305
67.300 6.381392
67.305 6.240946
67.310 6.206666
67.315 5.790117
67.320 5.770615
67.325 5.996503
67.330 5.899241
67.335 5.863893
67.340 5.78089
67.345 6.000766
67.350 6.436233
67.355 5.967788
67.360 5.652494
67.365 5.702855
67.370 5.679496
67.375 5.571007
67.380 5.183192
67.385 5.265679
67.390 5.750858
67.395 5.930598
67.400 6.144911
67.405 6.500271
67.410 6.59304
67.415 6.854707
67.420 6.648258
67.425 6.712485
67.430 6.873374
67.435 6.423953
67.440 6.345402
67.445 6.278524
67.450 6.025084
67.455 6.049496
67.460 6.062202
67.465 6.136289
67.470 6.3811
67.475 6.644382
67.480 7.066711
67.485 7.110065
67.490 7.105517
67.495 6.931332
67.500 6.653553
67.505 6.676891
67.510 6.570063
67.515 6.200854
67.520 6.266114
67.525 6.459475
67.530 6.527924
67.535 6.652279
67.540 6.417487
67.545 6.104027
67.550 6.219398
67.555 5.997503
67.560 5.885481
67.565 5.911638
67.570 5.815043
67.575 5.860083
67.580 5.847864
67.585 5.791239
67.590 6.306754
67.595 6.327201
67.600 6.079978
67.605 6.298625
67.610 6.579098
67.615 6.863593
67.620 7.012865
67.625 6.704901
67.630 6.680524
67.635 7.063909
67.640 6.857671
67.645 6.567115
67.650 6.375352
67.655 6.232283
67.660 6.226483
67.665 6.073366
67.670 6.102237
67.675 6.126928
67.680 6.292276
67.685 6.384455
67.690 6.85757
67.695 7.135865
67.700 7.466565
67.705 7.709428
67.710 7.749489
67.715 7.788389
67.720 7.853691
67.725 7.244491
67.730 7.221452
67.735 6.891288
67.740 6.630116
67.745 7.153039
67.750 7.393856
67.755 7.232845
67.760 7.121547
67.765 6.941313
67.770 7.058921
67.775 7.331849
67.780 7.310165
67.785 7.356562
67.790 7.921253
67.795 7.846181
67.800 8.095502
67.805 8.302952
67.810 7.8576
67.815 7.57339
67.820 7.289648
67.825 6.88623
67.830 7.239916
67.835 6.852424
67.840 6.542515
67.845 6.753978
67.850 6.241045
67.855 6.225166
67.860 6.253631
67.865 6.212348
67.870 6.523168
67.875 6.321436
67.880 6.096511
67.885 6.491886
67.890 6.412175
67.895 6.417986
67.900 6.736824
67.905 6.907258
67.910 6.992028
67.915 7.261666
67.920 7.499446
67.925 7.881924
67.930 7.57209
67.935 6.89206
67.940 6.975573
67.945 7.213767
67.950 7.200042
67.955 6.912711
67.960 6.801281
67.965 6.807358
67.970 7.381247
67.975 7.171413
67.980 7.038243
67.985 6.9467
67.990 7.033069
67.995 7.334348
68.000 7.58085
68.005 7.023997
68.010 7.148718
68.015 7.006805
68.020 6.82081
68.025 6.341717
68.030 6.003812
68.035 6.147232
68.040 6.125511
68.045 6.062047
68.050 6.049908
68.055 5.957382
68.060 6.001243
68.065 5.877954
68.070 5.702363
68.075 5.857058
68.080 5.622142
68.085 5.723093
68.090 6.070961
68.095 6.49437
68.100 6.496511
68.105 6.457151
68.110 6.500981
68.115 6.471997
68.120 6.289042
68.125 6.277941
68.130 6.013036
68.135 6.287874
68.140 6.294318
68.145 6.345579
68.150 6.763468
68.155 7.186047
68.160 6.95785
68.165 7.06703
68.170 6.969708
68.175 6.828683
68.180 6.824934
68.185 6.441445
68.190 6.733222
68.195 6.780364
68.200 6.646321
68.205 6.797869
68.210 6.722661
68.215 6.619124
68.220 6.765671
68.225 6.337863
68.230 6.609332
68.235 6.34989
68.240 6.462187
68.245 6.69295
68.250 6.339141
68.255 6.252907
68.260 6.143567
68.265 5.930116
68.270 5.924084
68.275 5.753443
68.280 5.824333
68.285 5.810335
68.290 5.479261
68.295 5.231285
68.300 5.131076
68.305 5.32658
68.310 5.070401
68.315 5.243463
68.320 5.700149
68.325 6.184072
68.330 6.601612
68.335 6.525187
68.340 6.646974
68.345 7.207849
68.350 7.206789
68.355 6.999319
68.360 6.837522
68.365 6.659775
68.370 6.941341
68.375 6.823743
68.380 6.571256
68.385 6.610493
68.390 6.722685
68.395 6.496237
68.400 6.325639
68.405 6.220326
68.410 6.079475
68.415 6.422032
68.420 6.569695
68.425 6.298928
68.430 6.292274
68.435 6.284242
68.440 6.137936
68.445 6.043222
68.450 5.875766
68.455 6.021878
68.460 6.35464
68.465 6.654373
68.470 6.878312
68.475 7.14993
68.480 7.022018
68.485 6.613678
68.490 6.883664
68.495 6.705375
68.500 6.721869
68.505 6.649049
68.510 6.380852
68.515 6.178375
68.520 6.181449
68.525 6.147607
68.530 6.400927
68.535 6.520481
68.540 6.545542
68.545 6.59751
68.550 6.972147
68.555 6.969315
68.560 6.717588
68.565 6.257666
68.570 5.850599
68.575 5.735037
68.580 5.975438
68.585 6.134377
68.590 6.101073
68.595 5.995956
68.600 5.919167
68.605 6.550395
68.610 6.754193
68.615 6.491221
68.620 6.067313
68.625 6.118343
68.630 6.530964
68.635 6.597045
68.640 6.180352
68.645 6.124565
68.650 6.176221
68.655 6.374866
68.660 5.899066
68.665 5.928368
68.670 6.318676
68.675 6.392261
68.680 6.754408
68.685 6.798518
68.690 6.796112
68.695 6.89465
68.700 6.759339
68.705 6.600348
68.710 6.607835
68.715 6.454828
68.720 6.428536
68.725 6.528617
68.730 6.513381
68.735 6.576031
68.740 7.026699
68.745 7.182624
68.750 7.00291
68.755 6.843892
68.760 7.231393
68.765 7.395854
68.770 7.336388
68.775 6.906323
68.780 6.682505
68.785 7.109652
68.790 7.206433
68.795 7.017552
68.800 7.273046
68.805 7.293785
68.810 7.356688
68.815 7.627508
68.820 7.678889
68.825 7.819231
68.830 8.025483
68.835 7.93374
68.840 7.942586
68.845 8.080573
68.850 7.916226
68.855 7.74892
68.860 7.4937
68.865 7.358827
68.870 7.413869
68.875 7.166475
68.880 7.110676
68.885 7.145508
68.890 7.063581
68.895 7.293156
68.900 7.013394
68.905 7.013673
68.910 7.130583
68.915 7.014533
68.920 7.032153
68.925 7.340832
68.930 7.410378
68.935 7.314499
68.940 7.241691
68.945 7.263642
68.950 7.477012
68.955 7.273262
68.960 7.560284
68.965 7.611072
68.970 7.981841
68.975 8.306351
68.980 8.795299
68.985 8.802282
68.990 8.753759
68.995 8.51263
69.000 8.292394
69.005 8.34423
69.010 8.28114
69.015 7.671799
69.020 7.623191
69.025 7.576212
69.030 7.287483
69.035 7.102826
69.040 6.760926
69.045 6.532948
69.050 6.429946
69.055 6.495673
69.060 6.395057
69.065 6.58182
69.070 6.989639
69.075 7.296015
69.080 7.60564
69.085 7.926455
69.090 7.759151
69.095 7.733192
69.100 7.770043
69.105 7.638588
69.110 7.532675
69.115 7.196014
69.120 7.285098
69.125 7.417046
69.130 7.714827
69.135 7.439336
69.140 7.396221
69.145 7.021596
69.150 7.006943
69.155 7.432053
69.160 7.194887
69.165 6.864894
69.170 6.918286
69.175 6.777433
69.180 6.912191
69.185 7.081318
69.190 6.823607
69.195 7.088099
69.200 7.321238
69.205 7.322968
69.210 7.557123
69.215 7.240016
69.220 7.242144
69.225 7.047513
69.230 6.939165
69.235 6.494755
69.240 6.660389
69.245 6.64697
69.250 7.012664
69.255 6.777446
69.260 6.429035
69.265 6.78427
69.270 7.008102
69.275 6.464013
69.280 5.816115
69.285 5.708582
69.290 5.866543
69.295 5.927876
69.300 5.670037
69.305 5.694865
69.310 5.965924
69.315 6.254476
69.320 6.183231
69.325 6.194056
69.330 5.949454
69.335 5.810458
69.340 5.579195
69.345 5.415164
69.350 5.426781
69.355 5.165759
69.360 5.316107
69.365 5.518377
69.370 5.952819
69.375 6.105163
69.380 6.659502
69.385 6.6822
69.390 7.053312
69.395 6.881169
69.400 6.704521
69.405 6.292264
69.410 6.135094
69.415 6.281104
69.420 6.107183
69.425 5.909199
69.430 6.286355
69.435 6.663632
69.440 6.846178
69.445 6.690073
69.450 6.21957
69.455 6.490614
69.460 6.781177
69.465 6.56161
69.470 6.229763
69.475 6.14522
69.480 6.401309
69.485 6.524282
69.490 6.567626
69.495 6.328071
69.500 6.44834
69.505 6.431359
69.510 6.764982
69.515 6.954334
69.520 6.463173
69.525 6.322841
69.530 6.363735
69.535 6.167157
69.540 6.294205
69.545 6.163538
69.550 6.316419
69.555 6.420043
69.560 6.366324
69.565 6.660732
69.570 6.766052
69.575 7.064097
69.580 7.248712
69.585 7.070314
69.590 7.310035
69.595 7.050151
69.600 6.804981
69.605 7.068684
69.610 6.742411
69.615 6.759553
69.620 7.080124
69.625 7.237588
69.630 7.422328
69.635 7.593414
69.640 7.622351
69.645 7.868727
69.650 7.508625
69.655 6.933694
69.660 6.855407
69.665 6.863425
69.670 6.445578
69.675 6.274694
69.680 6.144429
69.685 6.205504
69.690 6.094384
69.695 6.064478
69.700 6.426697
69.705 6.53737
69.710 6.533594
69.715 6.409297
69.720 6.421513
69.725 6.587516
69.730 6.481333
69.735 6.471635
69.740 6.619555
69.745 6.502482
69.750 6.818899
69.755 6.924469
69.760 6.958841
69.765 6.950063
69.770 6.610054
69.775 6.99168
69.780 7.000404
69.785 6.894835
69.790 6.574033
69.795 6.736223
69.800 6.902307
69.805 6.685619
69.810 6.476905
69.815 6.380253
69.820 6.351279
69.825 6.521527
69.830 6.287953
69.835 6.197252
69.840 6.170924
69.845 5.863925
69.850 5.887938
69.855 5.718599
69.860 5.477657
69.865 5.294117
69.870 5.424817
69.875 5.929237
69.880 6.053639
69.885 5.749379
69.890 5.812108
69.895 6.013763
69.900 6.014687
69.905 5.730728
69.910 5.462197
69.915 5.395859
69.920 5.912611
69.925 6.142319
69.930 6.761198
69.935 6.956503
69.940 6.667394
69.945 6.671676
69.950 7.188622
69.955 7.349305
69.960 7.064709
69.965 6.633915
69.970 6.642587
69.975 6.944776
69.980 6.764548
69.985 6.266984
69.990 5.950468
69.995 6.294147
70.000 6.73356
70.005 6.678777
70.010 6.849612
70.015 7.039298
70.020 7.251313
70.025 7.37453
70.030 7.006673
70.035 6.505591
70.040 6.663725
70.045 6.709365
70.050 6.777205
70.055 6.903477
70.060 6.828831
70.065 6.725234
70.070 6.978519
70.075 6.952692
70.080 6.742746
70.085 6.42515
70.090 6.36829
70.095 6.230073
70.100 6.557402
70.105 6.557844
70.110 6.446515
70.115 6.389729
70.120 6.63131
70.125 6.766534
70.130 6.924487
70.135 6.925744
70.140 7.034762
70.145 7.022764
70.150 7.21606
70.155 6.953598
70.160 6.804291
70.165 6.808319
70.170 6.636174
70.175 6.417322
70.180 6.644674
70.185 6.756356
70.190 6.797253
70.195 6.593952
70.200 6.659334
70.205 6.500424
70.210 6.702216
70.215 6.519712
70.220 6.229293
70.225 6.447261
70.230 6.753282
70.235 6.131207
70.240 5.87298
70.245 5.71988
70.250 5.817189
70.255 5.889054
70.260 6.066967
70.265 6.399623
70.270 7.095263
70.275 7.690138
70.280 7.597395
70.285 7.338144
70.290 7.553538
70.295 7.442493
70.300 7.158838
70.305 6.867115
70.310 6.642881
70.315 6.934193
70.320 7.141644
70.325 6.769209
70.330 6.522083
70.335 6.655227
70.340 6.989743
70.345 6.817355
70.350 6.636438
70.355 6.559463
70.360 6.674387
70.365 6.735607
70.370 6.495331
70.375 6.244365
70.380 6.078794
70.385 6.132232
70.390 5.964664
70.395 5.859507
70.400 5.977921
70.405 6.248833
70.410 6.451455
70.415 6.922409
70.420 7.159914
70.425 7.223474
70.430 7.027452
70.435 6.94021
70.440 6.826773
70.445 6.628234
70.450 6.792735
70.455 6.741098
70.460 6.822167
70.465 7.17061
70.470 7.204393
70.475 7.063847
70.480 6.813408
70.485 6.550879
70.490 6.569708
70.495 6.91602
70.500 6.795171
70.505 6.850124
70.510 7.01908
70.515 7.156104
70.520 7.163767
70.525 6.898944
70.530 6.430608
70.535 6.352198
70.540 6.179519
70.545 6.181674
70.550 6.052657
70.555 6.044847
70.560 6.353576
70.565 6.645923
70.570 6.737309
70.575 6.859371
70.580 6.623818
70.585 6.784478
70.590 6.837589
70.595 6.583879
70.600 6.600842
70.605 6.591487
70.610 6.690008
70.615 7.541284
70.620 7.410755
70.625 7.417357
70.630 7.604311
70.635 7.217503
70.640 7.121051
70.645 6.997666
70.650 6.61239
70.655 6.092866
70.660 5.790474
70.665 5.574386
70.670 5.436348
70.675 5.639387
70.680 5.964343
70.685 6.38801
70.690 7.185522
70.695 7.30941
70.700 7.743261
70.705 7.865372
70.710 7.542947
70.715 7.091603
70.720 6.616039
70.725 6.396481
70.730 6.112225
70.735 5.976626
70.740 6.184428
70.745 6.656712
70.750 6.53119
70.755 6.407566
70.760 6.577198
70.765 6.5916
70.770 6.869837
70.775 6.44223
70.780 6.258838
70.785 6.557882
70.790 6.557015
70.795 6.681942
70.800 6.915976
70.805 6.474503
70.810 6.522325
70.815 6.438549
70.820 6.534904
70.825 6.409678
70.830 6.042724
70.835 6.217046
70.840 6.602568
70.845 6.41182
70.850 6.572616
70.855 6.535577
70.860 6.838543
70.865 7.085861
70.870 6.724836
70.875 6.600808
70.880 6.318478
70.885 5.961905
70.890 5.553601
70.895 5.528623
70.900 5.689214
70.905 6.032869
70.910 6.267075
70.915 6.758766
70.920 7.262109
70.925 7.665716
70.930 7.664931
70.935 7.47279
70.940 7.138917
70.945 7.239855
70.950 7.178245
70.955 7.020752
70.960 6.842944
70.965 6.713246
70.970 6.747435
70.975 6.68584
70.980 6.602092
70.985 6.854732
70.990 6.637609
70.995 6.659317
71.000 6.539004
71.005 6.386896
71.010 6.258501
71.015 6.089507
71.020 5.888798
71.025 5.951941
71.030 6.419629
71.035 6.770362
71.040 7.02811
71.045 7.510324
71.050 7.569694
71.055 7.572268
71.060 7.038705
71.065 6.393959
71.070 6.27809
71.075 6.040466
71.080 5.86704
71.085 5.734272
71.090 5.838657
71.095 6.073547
71.100 6.018979
71.105 5.569708
71.110 5.339921
71.115 5.113998
71.120 5.096855
71.125 5.141242
71.130 5.502801
71.135 5.848459
71.140 6.354134
71.145 6.272699
71.150 6.029723
71.155 5.863884
71.160 5.870194
71.165 5.547868
71.170 5.565929
71.175 5.92767
71.180 6.065957
71.185 6.275539
71.190 6.588854
71.195 6.600407
71.200 6.745755
71.205 6.589705
71.210 6.462594
71.215 6.915107
71.220 6.891454
71.225 6.605178
71.230 7.147334
71.235 7.21702
71.240 7.057323
71.245 6.715187
71.250 6.777902
71.255 7.147233
71.260 7.254663
71.265 6.487533
71.270 6.285788
71.275 6.619036
71.280 6.692947
71.285 6.311055
71.290 5.880148
71.295 5.793187
71.300 6.222939
71.305 6.317415
71.310 6.378212
71.315 6.518646
71.320 6.402939
71.325 6.55215
71.330 6.534233
71.335 6.605903
71.340 6.942091
71.345 6.812111
71.350 6.652241
71.355 6.996335
71.360 6.967636
71.365 6.70437
71.370 6.257078
71.375 5.768772
71.380 5.772471
71.385 5.801044
71.390 5.835608
71.395 6.184927
71.400 6.337323
71.405 6.393945
71.410 6.678527
71.415 6.822588
71.420 6.91651
71.425 6.541023
71.430 6.424844
71.435 6.411879
71.440 6.219269
71.445 6.112388
71.450 6.083199
71.455 5.775631
71.460 5.852455
71.465 5.766404
71.470 5.732742
71.475 5.941087
71.480 6.063562
71.485 5.918907
71.490 6.128694
71.495 6.334183
71.500 6.621988
71.505 6.452486
71.510 6.108118
71.515 6.149006
71.520 6.269516
71.525 6.17085
71.530 6.035653
71.535 5.946486
71.540 6.158208
71.545 6.267514
71.550 6.032678
71.555 5.875154
71.560 6.12317
71.565 6.340831
71.570 6.324352
71.575 6.452284
71.580 6.557666
71.585 6.732766
71.590 6.747997
71.595 6.78019
71.600 6.916987
71.605 7.20259
71.610 7.023772
71.615 6.63924
71.620 7.040855
71.625 7.018696
71.630 6.673922
71.635 6.677359
71.640 6.73131
71.645 7.161894
71.650 7.326897
71.655 6.948562
71.660 6.921672
71.665 6.948653
71.670 6.650247
71.675 6.488331
71.680 5.874667
71.685 5.469178
71.690 5.703921
71.695 5.712259
71.700 6.117708
71.705 6.611076
71.710 6.673925
71.715 6.637707
71.720 6.856839
71.725 6.64944
71.730 6.435627
71.735 6.196738
71.740 5.868798
71.745 6.61281
71.750 7.291448
71.755 7.315195
71.760 7.726903
71.765 7.72811
71.770 7.808337
71.775 7.557731
71.780 6.75064
71.785 6.325683
71.790 6.1054
71.795 6.130488
71.800 6.191157
71.805 6.200692
71.810 6.393356
71.815 6.734738
71.820 6.960301
71.825 6.744704
71.830 6.53834
71.835 6.329731
71.840 6.417761
71.845 6.378526
71.850 6.393415
71.855 6.631552
71.860 6.853822
71.865 6.793411
71.870 6.498772
71.875 6.232114
71.880 6.212851
71.885 6.067225
71.890 6.01164
71.895 5.730802
71.900 5.927104
71.905 5.867579
71.910 6.079243
71.915 6.20364
71.920 5.977357
71.925 6.080094
71.930 6.360143
71.935 6.819647
71.940 7.115564
71.945 6.723451
71.950 6.695328
71.955 6.781517
71.960 7.007232
71.965 7.298254
71.970 7.361298
71.975 7.439896
71.980 7.458332
71.985 7.741546
71.990 7.737621
71.995 7.461001
72.000 7.018456
72.005 7.00678
72.010 6.638834
72.015 6.324591
72.020 6.114267
72.025 6.069636
72.030 6.176652
72.035 6.335105
72.040 6.520008
72.045 7.028942
72.050 7.496501
72.055 7.598649
72.060 7.717552
72.065 7.556805
72.070 7.220097
72.075 7.272994
72.080 7.374914
72.085 7.259629
72.090 7.052201
72.095 6.622104
72.100 6.663941
72.105 6.576596
72.110 6.239387
72.115 5.899214
72.120 5.974389
72.125 6.183588
72.130 6.265405
72.135 6.234786
72.140 6.250499
72.145 6.294264
72.150 6.223885
72.155 6.060964
72.160 6.067605
72.165 6.175785
72.170 6.487948
72.175 6.757903
72.180 6.743793
72.185 6.660962
72.190 6.705671
72.195 6.850748
72.200 7.146719
72.205 6.923199
72.210 6.651972
72.215 6.694784
72.220 6.717689
72.225 6.743866
72.230 6.355037
72.235 5.983883
72.240 5.980347
72.245 6.014149
72.250 6.167564
72.255 6.230283
72.260 5.861486
72.265 6.041422
72.270 6.027954
72.275 5.983813
72.280 5.949644
72.285 5.710572
72.290 5.572526
72.295 5.848503
72.300 5.930868
72.305 6.201993
72.310 6.265101
72.315 6.344073
72.320 6.180124
72.325 6.427265
72.330 6.169343
72.335 6.343328
72.340 6.549522
72.345 6.827404
72.350 7.250749
72.355 7.606839
72.360 7.4104
72.365 7.247111
72.370 6.811857
72.375 6.4059
72.380 6.02859
72.385 5.709025
72.390 5.99052
72.395 6.224455
72.400 6.150625
72.405 6.178422
72.410 6.361834
72.415 6.480756
72.420 6.394236
72.425 6.089064
72.430 5.992507
72.435 6.131447
72.440 5.828938
72.445 5.536127
72.450 5.387376
72.455 5.262336
72.460 5.085445
72.465 5.489049
72.470 5.44425
72.475 5.783906
72.480 6.237245
72.485 6.491364
72.490 6.851035
72.495 6.737216
72.500 6.563236
72.505 6.646386
72.510 6.59052
72.515 6.181741
72.520 6.279833
72.525 6.35278
72.530 6.651727
72.535 6.844395
72.540 6.646399
72.545 6.880013
72.550 6.948453
72.555 7.219973
72.560 7.811658
72.565 7.432931
72.570 7.105525
72.575 7.075049
72.580 6.86053
72.585 6.82596
72.590 5.996597
72.595 5.352374
72.600 5.373156
72.605 5.768687
72.610 5.69903
72.615 5.849709
72.620 5.933445
72.625 6.35223
72.630 6.423534
72.635 6.529172
72.640 6.500764
72.645 6.566715
72.650 6.220834
72.655 5.927082
72.660 6.073191
72.665 6.134619
72.670 6.197913
72.675 5.979321
72.680 5.926019
72.685 5.954966
72.690 5.902977
72.695 5.960705
72.700 6.441727
72.705 6.23418
72.710 6.019173
72.715 6.312544
72.720 6.693831
72.725 6.732242
72.730 6.860574
72.735 6.893641
72.740 7.488702
72.745 7.904286
72.750 7.835246
72.755 7.677506
72.760 7.535588
72.765 7.187751
72.770 6.936206
72.775 7.044888
72.780 7.221127
72.785 7.027382
72.790 6.939455
72.795 7.016688
72.800 7.138925
72.805 6.820736
72.810 6.357742
72.815 6.054938
72.820 6.426303
72.825 6.719065
72.830 6.35422
72.835 6.235447
72.840 6.592255
72.845 6.611306
72.850 6.679157
72.855 6.382562
72.860 6.451796
72.865 6.961071
72.870 7.119835
72.875 7.128467
72.880 7.071777
72.885 6.922385
72.890 6.856002
72.895 6.75156
72.900 6.227629
72.905 5.99993
72.910 6.202373
72.915 6.289762
72.920 6.053471
72.925 5.809173
72.930 5.874697
72.935 6.158231
72.940 6.281534
72.945 6.008347
72.950 6.225414
72.955 6.490769
72.960 6.62444
72.965 6.938598
72.970 6.791126
72.975 6.444602
72.980 6.583995
72.985 6.755545
72.990 6.764179
72.995 6.235286
73.000 5.860897
