!@!!GADDS PLOTSO FILE: Chi integration type
!@!!Title/SampleName: map-18c
!@!!Comment: ?
!@!!User: Bruker Instrument Administrator
!@!!Site: University of Illinois Chicago
!@!!Frame: map-18c_01_000.gfrm
!@!!Wavelengths    1.54184   1.54056   1.54439
!@!!Frame angles: 2Theta: 63.000 Omega: 50.000 Phi: 0.000 Chi: 90.000
!@!!Integration range: 2Theta: 53.000 to 73.000  Gamma: -105.000 to -75.000
!@!!Integration method: bin normalized
!@!N
!@!SS
!@!M
!@!L 0.0 0.0 0.0 0.0
!@!XDegrees
!@!YCounts
53.000 8.328719
53.005 8.368276
53.010 8.741605
53.015 8.902888
53.020 8.782407
53.025 9.001468
53.030 9.270059
53.035 9.152078
53.040 9.248533
53.045 8.897446
53.050 9.19232
53.055 9.312873
53.060 9.190176
53.065 8.87385
53.070 8.874964
53.075 8.89439
53.080 8.703753
53.085 7.730506
53.090 7.526641
53.095 7.678332
53.100 7.75408
53.105 7.723085
53.110 7.958736
53.115 8.616235
53.120 9.1001
53.125 8.932329
53.130 9.017766
53.135 8.93401
53.140 9.126534
53.145 9.016486
53.150 8.73503
53.155 8.791654
53.160 8.9525
53.165 9.211164
53.170 9.416951
53.175 9.069716
53.180 8.718441
53.185 8.505406
53.190 7.766259
53.195 7.579951
53.200 7.060138
53.205 6.833661
53.210 7.127688
53.215 7.278614
53.220 7.971624
53.225 8.662387
53.230 8.835346
53.235 8.965791
53.240 9.018983
53.245 8.824578
53.250 8.963181
53.255 8.736757
53.260 8.45883
53.265 8.499875
53.270 8.894258
53.275 8.915315
53.280 8.47904
53.285 8.150395
53.290 8.187773
53.295 8.297849
53.300 8.435945
53.305 7.946267
53.310 8.010764
53.315 8.344442
53.320 8.168007
53.325 7.946972
53.330 7.459749
53.335 7.385575
53.340 7.900984
53.345 8.115426
53.350 8.909889
53.355 9.072614
53.360 9.296958
53.365 9.651794
53.370 9.809451
53.375 9.46648
53.380 9.155704
53.385 8.152163
53.390 8.028773
53.395 7.913713
53.400 7.672805
53.405 7.565366
53.410 7.657854
53.415 7.88514
53.420 8.385176
53.425 8.277867
53.430 8.296951
53.435 8.309153
53.440 8.225465
53.445 8.284538
53.450 8.46148
53.455 9.007053
53.460 9.46203
53.465 9.35586
53.470 9.524007
53.475 9.622243
53.480 9.70669
53.485 9.035145
53.490 8.220662
53.495 8.236457
53.500 8.643899
53.505 8.741158
53.510 8.331706
53.515 8.434106
53.520 8.889259
53.525 9.035288
53.530 8.745808
53.535 8.784423
53.540 8.960265
53.545 9.164883
53.550 8.727521
53.555 8.855744
53.560 8.869546
53.565 8.850786
53.570 8.430328
53.575 8.115869
53.580 8.183454
53.585 8.66592
53.590 8.660119
53.595 9.013014
53.600 9.139209
53.605 9.250161
53.610 9.731239
53.615 9.669941
53.620 9.47478
53.625 9.237537
53.630 8.883169
53.635 8.68804
53.640 8.406106
53.645 7.880437
53.650 7.90648
53.655 8.057706
53.660 8.166963
53.665 8.342016
53.670 8.299822
53.675 8.345624
53.680 8.356741
53.685 8.215941
53.690 8.218199
53.695 8.445545
53.700 8.387935
53.705 8.886889
53.710 9.402949
53.715 9.579029
53.720 9.741117
53.725 9.627483
53.730 9.879529
53.735 10.157869
53.740 10.287627
53.745 10.277963
53.750 10.425565
53.755 10.58468
53.760 10.416605
53.765 10.214703
53.770 10.085414
53.775 9.961718
53.780 10.071649
53.785 9.667442
53.790 9.779982
53.795 10.001083
53.800 10.243591
53.805 10.088688
53.810 10.047011
53.815 10.485273
53.820 10.504949
53.825 9.826737
53.830 9.774323
53.835 9.650956
53.840 9.646152
53.845 9.629191
53.850 9.268336
53.855 9.811284
53.860 10.515013
53.865 10.257268
53.870 10.26687
53.875 10.421625
53.880 10.387
53.885 10.324365
53.890 9.831911
53.895 9.472165
53.900 9.240311
53.905 9.076763
53.910 9.259892
53.915 9.567188
53.920 9.916024
53.925 9.901571
53.930 9.754481
53.935 9.939999
53.940 9.784483
53.945 9.042195
53.950 8.497832
53.955 8.580065
53.960 8.482042
53.965 8.993477
53.970 8.975714
53.975 9.592049
53.980 9.899747
53.985 9.939954
53.990 9.626521
53.995 9.074584
54.000 8.691718
54.005 8.524462
54.010 7.980949
54.015 7.929864
54.020 8.064349
54.025 8.347027
54.030 8.891748
54.035 9.155427
54.040 9.638526
54.045 9.683152
54.050 9.671589
54.055 9.515393
54.060 9.462081
54.065 9.671933
54.070 9.346133
54.075 8.956716
54.080 8.933495
54.085 9.168205
54.090 9.455189
54.095 9.130469
54.100 9.127482
54.105 8.952543
54.110 8.449042
54.115 8.057935
54.120 7.822252
54.125 7.683386
54.130 8.106527
54.135 7.970934
54.140 8.620805
54.145 9.192627
54.150 9.262444
54.155 9.035377
54.160 9.230612
54.165 8.987459
54.170 8.906269
54.175 8.64622
54.180 8.827116
54.185 9.299954
54.190 9.393025
54.195 9.42262
54.200 9.961105
54.205 10.042482
54.210 10.284692
54.215 9.846396
54.220 9.374915
54.225 9.484408
54.230 9.603274
54.235 9.630464
54.240 9.499563
54.245 9.46583
54.250 9.415931
54.255 9.506455
54.260 9.576157
54.265 9.20209
54.270 8.887486
54.275 8.560533
54.280 8.608664
54.285 9.015995
54.290 9.315495
54.295 9.048313
54.300 8.754491
54.305 9.090314
54.310 9.035764
54.315 9.080093
54.320 9.108111
54.325 9.071397
54.330 9.551024
54.335 9.313763
54.340 8.738422
54.345 8.84425
54.350 8.622248
54.355 8.21492
54.360 7.778664
54.365 7.972507
54.370 8.147104
54.375 8.335893
54.380 8.004634
54.385 8.052324
54.390 8.380572
54.395 8.176151
54.400 8.421014
54.405 8.931828
54.410 9.480516
54.415 9.788835
54.420 10.00956
54.425 10.219987
54.430 10.369238
54.435 9.93183
54.440 9.533381
54.445 9.22556
54.450 9.365844
54.455 9.375766
54.460 9.827317
54.465 9.508101
54.470 9.415613
54.475 9.338437
54.480 9.143369
54.485 9.301176
54.490 9.190392
54.495 8.850375
54.500 8.683892
54.505 8.87869
54.510 8.916596
54.515 8.875635
54.520 8.605612
54.525 8.243206
54.530 8.013649
54.535 7.733372
54.540 7.445849
54.545 7.416673
54.550 7.490584
54.555 7.704124
54.560 7.786949
54.565 7.9297
54.570 8.119477
54.575 8.570888
54.580 9.080991
54.585 9.403104
54.590 9.641751
54.595 9.920227
54.600 10.34454
54.605 10.314344
54.610 10.637949
54.615 10.268447
54.620 9.930475
54.625 9.761478
54.630 9.506286
54.635 9.232333
54.640 8.792579
54.645 8.130723
54.650 8.088715
54.655 8.2205
54.660 8.00926
54.665 8.122601
54.670 8.501068
54.675 9.098425
54.680 8.895494
54.685 9.043038
54.690 9.209589
54.695 9.942047
54.700 9.841145
54.705 9.699874
54.710 10.017305
54.715 10.323857
54.720 10.469197
54.725 10.153043
54.730 9.462378
54.735 9.49504
54.740 9.534912
54.745 8.960905
54.750 9.245049
54.755 8.813997
54.760 8.845966
54.765 9.207349
54.770 9.26913
54.775 9.160042
54.780 8.903796
54.785 8.919237
54.790 8.916202
54.795 8.9449
54.800 8.745007
54.805 8.749406
54.810 9.011792
54.815 9.12661
54.820 9.224788
54.825 9.348623
54.830 9.131111
54.835 9.051816
54.840 9.131784
54.845 9.381695
54.850 9.309319
54.855 9.075906
54.860 9.139181
54.865 9.47394
54.870 10.1165
54.875 10.333474
54.880 10.266535
54.885 10.336058
54.890 10.212037
54.895 10.448189
54.900 10.178312
54.905 9.576411
54.910 9.651264
54.915 9.661578
54.920 9.675408
54.925 9.832077
54.930 9.408684
54.935 9.324283
54.940 9.246076
54.945 9.137369
54.950 9.815017
54.955 10.083047
54.960 10.015862
54.965 9.977931
54.970 10.196586
54.975 10.344195
54.980 10.255951
54.985 9.803872
54.990 9.97325
54.995 10.260057
55.000 10.304233
55.005 10.260205
55.010 10.294712
55.015 10.525042
55.020 10.783204
55.025 11.092443
55.030 11.055333
55.035 11.177775
55.040 11.196016
55.045 10.784141
55.050 10.027383
55.055 9.549987
55.060 9.308081
55.065 9.325179
55.070 9.566467
55.075 9.830363
55.080 10.356585
55.085 10.336746
55.090 10.121172
55.095 9.823593
55.100 9.377604
55.105 9.034737
55.110 8.822412
55.115 8.568464
55.120 7.987112
55.125 7.994476
55.130 8.226177
55.135 8.516937
55.140 8.39994
55.145 8.387897
55.150 8.442919
55.155 9.351723
55.160 9.720957
55.165 9.466154
55.170 9.569483
55.175 9.557564
55.180 9.549885
55.185 9.467713
55.190 9.333434
55.195 9.19783
55.200 9.370821
55.205 9.283269
55.210 9.164613
55.215 9.466347
55.220 9.457408
55.225 9.269423
55.230 8.986811
55.235 8.74869
55.240 8.692499
55.245 8.702652
55.250 8.315016
55.255 8.442178
55.260 8.416824
55.265 8.658268
55.270 9.028571
55.275 9.196979
55.280 9.531733
55.285 9.671166
55.290 9.38005
55.295 9.380909
55.300 9.185641
55.305 8.857473
55.310 8.568576
55.315 8.270335
55.320 8.102337
55.325 8.465344
55.330 8.627459
55.335 8.580939
55.340 8.730128
55.345 8.623264
55.350 8.559536
55.355 9.012658
55.360 9.112984
55.365 8.993591
55.370 9.106879
55.375 8.945374
55.380 8.944633
55.385 9.025267
55.390 8.586014
55.395 8.741645
55.400 9.106519
55.405 9.369558
55.410 9.657318
55.415 9.827148
55.420 9.82211
55.425 9.867317
55.430 9.209661
55.435 9.059743
55.440 9.064968
55.445 8.906696
55.450 9.160439
55.455 9.181013
55.460 9.400621
55.465 9.669779
55.470 9.389896
55.475 9.464807
55.480 9.486984
55.485 9.293045
55.490 9.608376
55.495 9.518374
55.500 9.760869
55.505 9.858298
55.510 9.692715
55.515 9.454427
55.520 9.689178
55.525 8.896448
55.530 8.748432
55.535 8.890118
55.540 8.760842
55.545 8.952528
55.550 9.617695
55.555 9.219962
55.560 9.22743
55.565 9.122955
55.570 9.540921
55.575 9.891385
55.580 9.791253
55.585 9.238505
55.590 9.230111
55.595 9.347221
55.600 9.338026
55.605 8.753975
55.610 8.484707
55.615 8.252995
55.620 8.538495
55.625 8.829704
55.630 9.185439
55.635 9.042255
55.640 8.828013
55.645 8.858858
55.650 9.019539
55.655 9.307977
55.660 9.237238
55.665 9.194569
55.670 9.168522
55.675 9.211196
55.680 9.8211
55.685 9.575596
55.690 9.072061
55.695 8.892831
55.700 8.721578
55.705 8.914064
55.710 9.190231
55.715 8.731929
55.720 9.359761
55.725 10.007342
55.730 10.396889
55.735 9.680841
55.740 9.039012
55.745 8.737747
55.750 8.569997
55.755 8.397346
55.760 7.76421
55.765 7.833747
55.770 8.536843
55.775 8.817562
55.780 9.261673
55.785 9.196859
55.790 8.794336
55.795 9.107243
55.800 9.059664
55.805 9.562286
55.810 9.678596
55.815 9.616297
55.820 9.575438
55.825 9.581137
55.830 10.073401
55.835 10.061461
55.840 9.747137
55.845 9.51573
55.850 9.765795
55.855 10.026629
55.860 9.760559
55.865 8.662079
55.870 8.15136
55.875 8.446909
55.880 8.41182
55.885 8.202327
55.890 8.046498
55.895 8.166449
55.900 8.478972
55.905 8.720063
55.910 8.576947
55.915 8.592981
55.920 8.560951
55.925 8.656041
55.930 8.841482
55.935 9.134212
55.940 9.214519
55.945 9.068984
55.950 9.143942
55.955 9.245053
55.960 9.555632
55.965 9.505066
55.970 9.483317
55.975 9.809605
55.980 9.783278
55.985 9.705276
55.990 9.453316
55.995 9.400704
56.000 9.615638
56.005 9.526835
56.010 9.240436
56.015 9.319571
56.020 9.47391
56.025 9.366105
56.030 9.291736
56.035 9.050227
56.040 8.834063
56.045 8.729104
56.050 8.43161
56.055 8.28984
56.060 8.221633
56.065 8.161691
56.070 8.36371
56.075 8.665876
56.080 8.747361
56.085 9.14712
56.090 9.536725
56.095 9.754692
56.100 9.644595
56.105 9.350037
56.110 8.966296
56.115 8.71738
56.120 8.181349
56.125 7.771267
56.130 7.449944
56.135 7.56651
56.140 7.868986
56.145 8.736946
56.150 8.67827
56.155 8.99499
56.160 9.305133
56.165 9.223816
56.170 8.983487
56.175 8.751134
56.180 8.365583
56.185 8.7458
56.190 9.029779
56.195 9.159878
56.200 9.656192
56.205 9.843212
56.210 9.626016
56.215 9.546082
56.220 9.196891
56.225 9.168122
56.230 9.185479
56.235 9.268052
56.240 9.224937
56.245 9.65729
56.250 9.856484
56.255 9.692187
56.260 9.550171
56.265 9.670211
56.270 9.690019
56.275 10.106963
56.280 9.760509
56.285 9.637032
56.290 9.812523
56.295 10.233555
56.300 9.997513
56.305 9.798703
56.310 10.261662
56.315 10.198771
56.320 10.187485
56.325 10.118791
56.330 9.666248
56.335 10.015527
56.340 9.596821
56.345 8.854527
56.350 9.188266
56.355 9.431119
56.360 9.550982
56.365 9.806356
56.370 9.837136
56.375 10.101149
56.380 10.625
56.385 10.736141
56.390 10.412683
56.395 10.123024
56.400 9.903933
56.405 9.969857
56.410 10.108256
56.415 9.504508
56.420 9.335868
56.425 9.479369
56.430 10.007268
56.435 10.349339
56.440 10.283643
56.445 10.266284
56.450 10.370832
56.455 10.701373
56.460 11.259822
56.465 11.177608
56.470 10.989526
56.475 11.396166
56.480 11.69057
56.485 12.052309
56.490 12.010321
56.495 11.765321
56.500 11.91907
56.505 12.178107
56.510 11.830678
56.515 11.285042
56.520 10.880516
56.525 11.164816
56.530 11.543904
56.535 11.609919
56.540 11.806138
56.545 12.058051
56.550 12.401667
56.555 12.655551
56.560 12.224527
56.565 12.067678
56.570 11.896804
56.575 11.682614
56.580 11.486499
56.585 11.697147
56.590 11.711226
56.595 11.881018
56.600 11.875471
56.605 11.78205
56.610 11.917319
56.615 11.953154
56.620 11.635792
56.625 12.085925
56.630 12.170778
56.635 11.750133
56.640 11.823717
56.645 12.009168
56.650 12.491645
56.655 12.790231
56.660 12.660177
56.665 12.408289
56.670 12.131053
56.675 11.878916
56.680 11.557211
56.685 11.312859
56.690 11.13324
56.695 10.531048
56.700 10.285356
56.705 10.858015
56.710 11.053041
56.715 10.95037
56.720 10.566533
56.725 10.213281
56.730 10.384562
56.735 10.347537
56.740 9.991998
56.745 9.722674
56.750 10.030349
56.755 10.401025
56.760 10.607115
56.765 10.465036
56.770 10.831649
56.775 10.719754
56.780 10.61443
56.785 10.526367
56.790 10.380877
56.795 10.749743
56.800 11.229878
56.805 11.003774
56.810 10.919985
56.815 10.769147
56.820 10.633477
56.825 10.426862
56.830 9.893627
56.835 9.397419
56.840 9.205416
56.845 9.172102
56.850 8.961941
56.855 8.621601
56.860 8.554627
56.865 8.437976
56.870 8.457855
56.875 8.629916
56.880 8.856782
56.885 9.156805
56.890 9.326317
56.895 9.876762
56.900 10.011225
56.905 10.074027
56.910 10.049298
56.915 10.073368
56.920 10.228107
56.925 10.250314
56.930 10.247167
56.935 10.275266
56.940 10.47453
56.945 10.444225
56.950 10.24893
56.955 10.187608
56.960 10.091053
56.965 9.684639
56.970 9.4364
56.975 9.173109
56.980 9.158105
56.985 8.908766
56.990 9.092169
56.995 8.615132
57.000 8.585213
57.005 9.02285
57.010 9.062463
57.015 9.175385
57.020 9.298156
57.025 8.917639
57.030 8.791431
57.035 8.965513
57.040 8.609095
57.045 8.489316
57.050 8.630715
57.055 8.485258
57.060 8.539649
57.065 8.647808
57.070 8.439596
57.075 8.221048
57.080 8.363404
57.085 8.139936
57.090 8.158831
57.095 8.099374
57.100 8.291136
57.105 8.542582
57.110 8.845241
57.115 8.97989
57.120 9.081712
57.125 9.068192
57.130 9.342561
57.135 9.285115
57.140 9.009209
57.145 8.569695
57.150 8.244481
57.155 8.051821
57.160 7.967565
57.165 7.914237
57.170 7.691164
57.175 8.23956
57.180 8.949172
57.185 9.379054
57.190 10.067465
57.195 10.126135
57.200 10.430391
57.205 10.547342
57.210 9.767519
57.215 9.432181
57.220 8.917
57.225 8.514374
57.230 8.617904
57.235 8.351561
57.240 8.524851
57.245 8.859828
57.250 8.522247
57.255 8.471265
57.260 8.392815
57.265 8.619144
57.270 8.624682
57.275 8.411557
57.280 8.272532
57.285 8.548147
57.290 8.620606
57.295 8.847986
57.300 9.242222
57.305 9.589424
57.310 9.73414
57.315 9.92802
57.320 9.997045
57.325 9.880578
57.330 9.854974
57.335 9.572392
57.340 9.536786
57.345 9.759576
57.350 10.191228
57.355 10.135819
57.360 10.47739
57.365 10.279702
57.370 9.907234
57.375 9.859047
57.380 9.735895
57.385 9.579441
57.390 9.685266
57.395 9.806241
57.400 10.010676
57.405 10.353185
57.410 10.504246
57.415 10.423336
57.420 10.280154
57.425 10.1012
57.430 9.330904
57.435 8.891698
57.440 8.755925
57.445 8.719698
57.450 9.011369
57.455 9.27107
57.460 9.590615
57.465 10.033042
57.470 10.18575
57.475 9.961365
57.480 9.779668
57.485 9.485955
57.490 9.192225
57.495 8.947891
57.500 8.952184
57.505 9.352912
57.510 9.47104
57.515 9.331144
57.520 9.21664
57.525 9.168336
57.530 9.462859
57.535 9.630062
57.540 9.491837
57.545 9.715083
57.550 9.755791
57.555 9.869108
57.560 9.68646
57.565 9.433684
57.570 9.299335
57.575 9.237794
57.580 9.063819
57.585 9.23648
57.590 9.041146
57.595 9.383828
57.600 9.334366
57.605 9.4149
57.610 9.302105
57.615 9.431865
57.620 9.483044
57.625 9.775438
57.630 9.542852
57.635 9.488523
57.640 9.317307
57.645 8.92107
57.650 8.866888
57.655 8.438779
57.660 8.118647
57.665 7.9488
57.670 7.685504
57.675 7.730529
57.680 8.102228
57.685 8.037467
57.690 8.714625
57.695 8.837633
57.700 8.923819
57.705 9.003209
57.710 8.890616
57.715 8.719905
57.720 8.684673
57.725 8.407041
57.730 8.424343
57.735 8.586445
57.740 8.754031
57.745 8.997535
57.750 9.082251
57.755 8.950919
57.760 8.986024
57.765 9.322716
57.770 9.09586
57.775 9.201969
57.780 9.394866
57.785 9.752344
57.790 9.735854
57.795 9.16679
57.800 9.170062
57.805 9.356613
57.810 9.035229
57.815 9.015306
57.820 9.157624
57.825 9.393745
57.830 9.773144
57.835 9.383776
57.840 8.987053
57.845 8.676684
57.850 8.0665
57.855 7.734169
57.860 7.80892
57.865 7.686024
57.870 7.690069
57.875 7.787516
57.880 8.274867
57.885 8.595801
57.890 8.750737
57.895 8.757606
57.900 8.636938
57.905 9.017352
57.910 9.029449
57.915 8.866983
57.920 8.639582
57.925 8.491701
57.930 8.503772
57.935 8.99757
57.940 8.520888
57.945 8.389845
57.950 8.591756
57.955 8.92475
57.960 8.885259
57.965 8.919486
57.970 8.862464
57.975 9.07158
57.980 9.563897
57.985 9.320132
57.990 9.264784
57.995 9.396519
58.000 9.484543
58.005 9.287384
58.010 9.930395
58.015 9.929811
58.020 10.126994
58.025 9.883632
58.030 9.512656
58.035 9.491068
58.040 9.477561
58.045 8.88818
58.050 9.016001
58.055 8.908874
58.060 8.515253
58.065 8.423351
58.070 8.470303
58.075 8.814319
58.080 8.775725
58.085 8.121349
58.090 8.189438
58.095 8.491915
58.100 8.715834
58.105 8.732727
58.110 8.707088
58.115 8.800648
58.120 8.875895
58.125 8.602657
58.130 8.376882
58.135 7.97485
58.140 8.056518
58.145 7.894782
58.150 7.853636
58.155 8.077229
58.160 8.220489
58.165 8.463088
58.170 8.894604
58.175 8.716513
58.180 8.856641
58.185 8.919707
58.190 8.747266
58.195 8.868814
58.200 9.049832
58.205 8.714665
58.210 8.411283
58.215 8.51123
58.220 8.674972
58.225 8.810775
58.230 8.975823
58.235 9.097307
58.240 9.189635
58.245 9.230402
58.250 9.141283
58.255 8.816076
58.260 8.88782
58.265 8.917408
58.270 8.557324
58.275 8.358012
58.280 8.445352
58.285 8.505387
58.290 8.815341
58.295 9.037941
58.300 9.187792
58.305 10.154435
58.310 10.736779
58.315 10.536414
58.320 10.237201
58.325 9.877704
58.330 9.607004
58.335 9.17946
58.340 8.439398
58.345 8.146909
58.350 8.455791
58.355 8.692459
58.360 9.117532
58.365 9.347778
58.370 9.476583
58.375 9.245939
58.380 9.338102
58.385 9.359089
58.390 9.149309
58.395 9.016609
58.400 9.039085
58.405 9.535847
58.410 9.76475
58.415 9.90791
58.420 9.930649
58.425 9.933128
58.430 9.264425
58.435 8.656351
58.440 8.544934
58.445 8.705872
58.450 8.269937
58.455 8.176001
58.460 8.496546
58.465 9.041329
58.470 8.91201
58.475 8.541145
58.480 8.339955
58.485 8.84139
58.490 9.221744
58.495 9.572003
58.500 9.697424
58.505 9.630322
58.510 9.740591
58.515 9.435705
58.520 8.945096
58.525 8.486855
58.530 7.983644
58.535 7.849201
58.540 8.417865
58.545 8.943459
58.550 9.336675
58.555 9.41534
58.560 8.957689
58.565 8.955483
58.570 8.993612
58.575 8.724632
58.580 8.139723
58.585 7.591462
58.590 7.417016
58.595 7.538905
58.600 7.755138
58.605 7.632078
58.610 7.559953
58.615 7.871549
58.620 8.481919
58.625 9.015108
58.630 9.729114
58.635 10.006543
58.640 10.436768
58.645 10.32721
58.650 10.026183
58.655 9.519919
58.660 8.974871
58.665 8.352757
58.670 7.952449
58.675 7.753624
58.680 7.762234
58.685 8.195791
58.690 8.849793
58.695 9.463169
58.700 9.899249
58.705 9.774388
58.710 9.991525
58.715 10.225935
58.720 10.16743
58.725 10.614862
58.730 10.97858
58.735 10.964556
58.740 11.082931
58.745 10.70916
58.750 10.748807
58.755 10.320451
58.760 9.550088
58.765 9.091985
58.770 8.977775
58.775 9.34948
58.780 9.188831
58.785 9.050273
58.790 9.250895
58.795 9.596315
58.800 9.559191
58.805 10.169392
58.810 10.181419
58.815 10.411741
58.820 10.279298
58.825 10.236196
58.830 10.489351
58.835 10.222891
58.840 9.445997
58.845 9.581309
58.850 9.617452
58.855 9.96144
58.860 9.846519
58.865 9.328197
58.870 9.200505
58.875 9.174497
58.880 9.025918
58.885 9.122319
58.890 8.764828
58.895 8.694495
58.900 8.465617
58.905 8.617159
58.910 8.501144
58.915 8.442204
58.920 8.422068
58.925 8.562154
58.930 8.465912
58.935 8.714096
58.940 8.603312
58.945 8.802762
58.950 8.839227
58.955 8.969264
58.960 9.233273
58.965 9.398447
58.970 9.538177
58.975 9.616982
58.980 9.55304
58.985 9.36231
58.990 9.375561
58.995 9.517079
59.000 9.448467
59.005 9.402304
59.010 9.886729
59.015 10.044142
59.020 9.893988
59.025 9.73273
59.030 9.591677
59.035 9.852227
59.040 9.742761
59.045 9.029442
59.050 8.757161
59.055 8.716055
59.060 8.350723
59.065 8.155363
59.070 7.584359
59.075 7.913239
59.080 8.263555
59.085 8.251453
59.090 8.352775
59.095 8.373744
59.100 8.754925
59.105 9.261163
59.110 9.082987
59.115 8.785623
59.120 9.142494
59.125 9.325654
59.130 9.316085
59.135 9.228389
59.140 8.950802
59.145 8.773438
59.150 9.06904
59.155 9.496592
59.160 9.556305
59.165 9.734452
59.170 9.641613
59.175 9.948585
59.180 10.327399
59.185 9.65602
59.190 8.849246
59.195 8.709564
59.200 8.187815
59.205 7.777151
59.210 7.296107
59.215 6.888462
59.220 7.231135
59.225 7.801321
59.230 7.764162
59.235 8.017981
59.240 8.094265
59.245 8.283946
59.250 8.622004
59.255 8.904587
59.260 8.527669
59.265 8.43024
59.270 8.352635
59.275 8.499028
59.280 8.663242
59.285 8.694096
59.290 8.280017
59.295 8.275541
59.300 8.543703
59.305 8.312783
59.310 8.080395
59.315 7.85827
59.320 7.606241
59.325 7.587033
59.330 7.52206
59.335 7.826034
59.340 8.62092
59.345 8.942438
59.350 8.993
59.355 9.196128
59.360 9.588063
59.365 9.649529
59.370 9.740559
59.375 9.524418
59.380 9.581934
59.385 9.597831
59.390 9.93301
59.395 9.452976
59.400 9.570609
59.405 9.599324
59.410 9.271086
59.415 8.93023
59.420 8.641554
59.425 8.506141
59.430 8.801541
59.435 8.136596
59.440 7.826131
59.445 7.890366
59.450 8.171312
59.455 8.558927
59.460 8.41748
59.465 8.496414
59.470 8.721455
59.475 8.93828
59.480 9.118909
59.485 9.157226
59.490 8.977855
59.495 9.149257
59.500 9.551449
59.505 9.612823
59.510 9.552334
59.515 9.359102
59.520 9.16127
59.525 9.415486
59.530 9.187596
59.535 8.939124
59.540 8.826084
59.545 8.900425
59.550 9.107091
59.555 9.285861
59.560 8.574031
59.565 8.267066
59.570 8.489333
59.575 8.602822
59.580 8.755784
59.585 8.730666
59.590 8.632458
59.595 8.998944
59.600 9.214437
59.605 9.142842
59.610 9.014187
59.615 8.367832
59.620 8.689038
59.625 9.000105
59.630 9.122827
59.635 9.270372
59.640 9.490075
59.645 9.625449
59.650 10.028649
59.655 9.834564
59.660 9.491621
59.665 9.348848
59.670 9.119244
59.675 9.00587
59.680 8.872005
59.685 9.24525
59.690 9.458086
59.695 9.945121
59.700 10.520284
59.705 10.820896
59.710 11.045591
59.715 11.088671
59.720 10.503229
59.725 10.071014
59.730 10.158677
59.735 10.227536
59.740 9.880912
59.745 9.429882
59.750 9.631019
59.755 9.654736
59.760 9.690439
59.765 9.572613
59.770 9.548591
59.775 9.54952
59.780 9.845677
59.785 9.677217
59.790 10.089304
59.795 10.091031
59.800 10.077897
59.805 10.237123
59.810 10.444538
59.815 10.621893
59.820 10.843678
59.825 10.484689
59.830 10.299447
59.835 9.86325
59.840 9.037541
59.845 8.617412
59.850 8.595216
59.855 8.542419
59.860 9.013125
59.865 9.307542
59.870 9.357621
59.875 9.468369
59.880 9.670339
59.885 9.608008
59.890 9.528791
59.895 8.863059
59.900 8.34989
59.905 8.432477
59.910 8.782485
59.915 8.804479
59.920 8.45059
59.925 8.440085
59.930 8.621971
59.935 8.795714
59.940 8.80392
59.945 8.699916
59.950 8.695427
59.955 8.866442
59.960 8.982721
59.965 9.458551
59.970 9.730645
59.975 9.857629
59.980 9.930727
59.985 9.75586
59.990 9.843487
59.995 9.754474
60.000 9.302402
60.005 8.952651
60.010 8.396921
60.015 8.113752
60.020 8.283863
60.025 8.647681
60.030 8.704646
60.035 8.709414
60.040 8.951724
60.045 9.61674
60.050 9.879843
60.055 9.461948
60.060 9.357267
60.065 9.606172
60.070 9.656849
60.075 9.731481
60.080 9.619731
60.085 9.654675
60.090 10.060843
60.095 9.882719
60.100 9.239799
60.105 9.039251
60.110 8.975223
60.115 8.980572
60.120 9.031461
60.125 8.339627
60.130 8.022482
60.135 8.309994
60.140 8.348447
60.145 8.355592
60.150 8.141166
60.155 8.039272
60.160 8.41524
60.165 8.293028
60.170 8.260393
60.175 7.754482
60.180 7.386577
60.185 7.182118
60.190 7.136513
60.195 7.334667
60.200 7.712248
60.205 8.375327
60.210 8.671174
60.215 9.158856
60.220 9.497087
60.225 9.460227
60.230 9.106324
60.235 8.91243
60.240 8.45626
60.245 8.701757
60.250 8.521346
60.255 8.220859
60.260 8.62606
60.265 8.972229
60.270 8.957791
60.275 9.048848
60.280 8.89475
60.285 9.267406
60.290 9.455943
60.295 9.126447
60.300 9.027126
60.305 9.058009
60.310 9.045491
60.315 8.857105
60.320 8.171845
60.325 8.096869
60.330 8.040598
60.335 7.813358
60.340 7.430031
60.345 7.134167
60.350 7.322619
60.355 7.347377
60.360 7.648302
60.365 7.691236
60.370 7.529902
60.375 8.059081
60.380 8.577426
60.385 8.958851
60.390 9.166174
60.395 8.697623
60.400 8.674537
60.405 8.973771
60.410 8.969301
60.415 8.774507
60.420 8.491069
60.425 8.626054
60.430 8.697882
60.435 8.583859
60.440 8.201717
60.445 8.086649
60.450 8.047477
60.455 8.071463
60.460 8.175707
60.465 8.57065
60.470 9.053574
60.475 9.312629
60.480 8.949795
60.485 8.732835
60.490 8.749895
60.495 8.926988
60.500 8.856053
60.505 8.81525
60.510 9.058101
60.515 9.456142
60.520 9.789442
60.525 9.689331
60.530 9.155271
60.535 8.795568
60.540 8.836642
60.545 8.727016
60.550 8.679208
60.555 8.574254
60.560 8.422056
60.565 8.930958
60.570 9.459317
60.575 9.517276
60.580 9.668894
60.585 9.437514
60.590 9.590692
60.595 9.568609
60.600 9.246984
60.605 8.982624
60.610 9.200176
60.615 9.156269
60.620 9.332458
60.625 9.451252
60.630 9.489617
60.635 9.361481
60.640 9.39412
60.645 8.818585
60.650 8.917613
60.655 8.557489
60.660 8.293628
60.665 8.10465
60.670 7.94709
60.675 7.958071
60.680 8.306023
60.685 8.286296
60.690 8.305613
60.695 8.047266
60.700 8.303651
60.705 8.681334
60.710 8.728811
60.715 8.705268
60.720 8.64754
60.725 8.943869
60.730 9.335512
60.735 9.532819
60.740 9.033651
60.745 8.290313
60.750 8.047873
60.755 7.99393
60.760 8.09574
60.765 8.496199
60.770 8.402678
60.775 8.522762
60.780 9.323947
60.785 9.434594
60.790 9.539762
60.795 9.249164
60.800 8.588776
60.805 8.682598
60.810 8.960427
60.815 8.933263
60.820 8.991618
60.825 8.617247
60.830 8.390836
60.835 8.75617
60.840 8.73679
60.845 8.330754
60.850 7.88449
60.855 7.789041
60.860 7.896095
60.865 8.334861
60.870 8.417845
60.875 8.361895
60.880 8.376118
60.885 8.566284
60.890 8.557631
60.895 8.621817
60.900 8.166842
60.905 7.764689
60.910 7.609691
60.915 7.961671
60.920 8.433591
60.925 8.52609
60.930 8.887956
60.935 9.146935
60.940 9.170637
60.945 9.182302
60.950 9.238427
60.955 8.757976
60.960 8.682616
60.965 8.886119
60.970 9.108768
60.975 9.153459
60.980 8.931179
60.985 8.256205
60.990 7.989354
60.995 7.936321
61.000 7.837381
61.005 7.894802
61.010 8.161447
61.015 8.724358
61.020 9.173713
61.025 9.414141
61.030 8.993162
61.035 9.034333
61.040 8.628202
61.045 8.361934
61.050 8.256562
61.055 8.469688
61.060 8.277707
61.065 8.261173
61.070 7.529564
61.075 7.508781
61.080 7.433486
61.085 7.290083
61.090 7.52519
61.095 7.878108
61.100 8.3164
61.105 8.811425
61.110 9.104365
61.115 9.130798
61.120 9.466608
61.125 8.931909
61.130 8.618757
61.135 8.580647
61.140 8.642905
61.145 8.529294
61.150 8.448335
61.155 8.036035
61.160 8.0248
61.165 8.365182
61.170 8.252445
61.175 8.07644
61.180 8.315834
61.185 8.226992
61.190 8.641722
61.195 8.522687
61.200 8.190356
61.205 8.274986
61.210 8.787884
61.215 8.708409
61.220 8.82219
61.225 8.694911
61.230 9.193449
61.235 9.06461
61.240 8.640744
61.245 8.138377
61.250 8.01337
61.255 8.254344
61.260 8.448322
61.265 8.47465
61.270 8.869636
61.275 8.939283
61.280 9.035739
61.285 9.289346
61.290 9.339811
61.295 9.227338
61.300 9.073456
61.305 9.319295
61.310 9.625244
61.315 9.527214
61.320 9.186595
61.325 8.889914
61.330 8.757008
61.335 8.883822
61.340 8.782573
61.345 8.92587
61.350 9.012326
61.355 9.021147
61.360 8.991146
61.365 8.728291
61.370 8.3014
61.375 7.791018
61.380 7.580616
61.385 7.801665
61.390 7.99964
61.395 8.072096
61.400 8.286085
61.405 8.60623
61.410 8.841291
61.415 8.952288
61.420 8.721378
61.425 8.790756
61.430 8.696977
61.435 8.607191
61.440 8.517591
61.445 8.544314
61.450 8.690778
61.455 8.63921
61.460 8.561796
61.465 8.545349
61.470 8.694223
61.475 8.69839
61.480 8.678123
61.485 8.741753
61.490 8.388909
61.495 8.041986
61.500 7.702461
61.505 7.644514
61.510 7.706803
61.515 7.673019
61.520 7.921909
61.525 8.336493
61.530 8.684448
61.535 8.63628
61.540 8.295682
61.545 8.250598
61.550 8.03319
61.555 8.055338
61.560 8.407252
61.565 8.431766
61.570 8.840435
61.575 9.194245
61.580 9.820636
61.585 10.307818
61.590 9.824868
61.595 9.366426
61.600 9.273161
61.605 9.63512
61.610 10.055311
61.615 9.443835
61.620 9.121101
61.625 9.478928
61.630 9.601874
61.635 9.315477
61.640 8.92346
61.645 8.494627
61.650 8.254048
61.655 7.857868
61.660 7.519958
61.665 7.548236
61.670 7.777546
61.675 7.888134
61.680 8.050524
61.685 8.132561
61.690 8.499131
61.695 8.3325
61.700 8.424851
61.705 8.638085
61.710 8.558526
61.715 8.391575
61.720 8.51566
61.725 8.708952
61.730 9.338393
61.735 9.477617
61.740 9.468442
61.745 9.252061
61.750 9.340015
61.755 9.114166
61.760 9.041986
61.765 8.836941
61.770 8.783479
61.775 8.233561
61.780 8.060865
61.785 8.117841
61.790 8.070185
61.795 8.182007
61.800 8.120008
61.805 7.980595
61.810 8.828357
61.815 9.125725
61.820 9.640424
61.825 10.261662
61.830 10.132931
61.835 9.930907
61.840 9.458533
61.845 8.683952
61.850 8.613427
61.855 8.056377
61.860 7.835015
61.865 7.928916
61.870 8.074234
61.875 8.511706
61.880 8.930449
61.885 9.038618
61.890 9.79117
61.895 9.784073
61.900 9.450687
61.905 9.692026
61.910 9.610579
61.915 9.458655
61.920 9.441942
61.925 8.569693
61.930 8.322935
61.935 8.659703
61.940 8.496004
61.945 8.786864
61.950 8.667206
61.955 8.374036
61.960 8.3222
61.965 8.010214
61.970 7.740904
61.975 7.650619
61.980 7.653326
61.985 7.698554
61.990 8.230097
61.995 8.953279
62.000 9.326671
62.005 9.401055
62.010 9.325976
62.015 8.994855
62.020 9.118081
62.025 8.6679
62.030 8.172066
62.035 7.991291
62.040 7.969498
62.045 7.957109
62.050 8.336942
62.055 8.465022
62.060 8.608418
62.065 9.177839
62.070 9.620238
62.075 9.799957
62.080 9.900619
62.085 9.625177
62.090 9.597071
62.095 9.315303
62.100 8.833048
62.105 8.540654
62.110 8.891344
62.115 9.192101
62.120 9.307209
62.125 9.087246
62.130 9.239885
62.135 9.609838
62.140 9.69362
62.145 9.423633
62.150 8.994206
62.155 8.97415
62.160 9.404172
62.165 9.520556
62.170 9.618486
62.175 10.022769
62.180 9.893045
62.185 9.996893
62.190 10.11636
62.195 9.921065
62.200 9.57187
62.205 9.224649
62.210 9.258324
62.215 9.45106
62.220 9.298922
62.225 9.253618
62.230 9.100549
62.235 9.329268
62.240 9.269474
62.245 8.736036
62.250 8.788898
62.255 9.191503
62.260 9.464827
62.265 9.510495
62.270 9.931511
62.275 10.153946
62.280 10.356925
62.285 10.241477
62.290 10.073053
62.295 9.499457
62.300 9.136115
62.305 8.484181
62.310 8.000059
62.315 7.811845
62.320 7.709257
62.325 7.62058
62.330 8.071624
62.335 8.313835
62.340 8.5212
62.345 8.67113
62.350 9.170662
62.355 9.528679
62.360 9.379793
62.365 9.01783
62.370 8.80677
62.375 8.786843
62.380 8.496541
62.385 8.238359
62.390 7.976628
62.395 8.209393
62.400 8.502934
62.405 8.716065
62.410 9.024206
62.415 9.377028
62.420 9.087964
62.425 9.113301
62.430 9.175455
62.435 9.345919
62.440 9.409068
62.445 9.17984
62.450 9.071589
62.455 9.058458
62.460 9.129201
62.465 8.699401
62.470 8.685802
62.475 8.877501
62.480 8.730628
62.485 8.495411
62.490 8.633017
62.495 8.720322
62.500 9.179911
62.505 9.455014
62.510 9.548594
62.515 10.010763
62.520 10.110744
62.525 10.069464
62.530 10.241343
62.535 9.920856
62.540 9.530334
62.545 9.393896
62.550 9.394553
62.555 9.474496
62.560 9.465466
62.565 8.908491
62.570 9.204762
62.575 9.453553
62.580 9.621801
62.585 10.196246
62.590 10.957598
62.595 11.337853
62.600 11.911393
62.605 11.846588
62.610 11.681888
62.615 11.287319
62.620 10.773753
62.625 10.508209
62.630 10.411217
62.635 10.148442
62.640 10.13985
62.645 10.404468
62.650 10.582264
62.655 10.5851
62.660 10.766953
62.665 11.227387
62.670 11.27982
62.675 11.18828
62.680 11.079804
62.685 10.985662
62.690 11.00324
62.695 10.474998
62.700 9.942034
62.705 10.217132
62.710 10.357964
62.715 10.324113
62.720 10.162417
62.725 10.269706
62.730 10.337139
62.735 10.726397
62.740 10.893398
62.745 11.027257
62.750 10.809659
62.755 10.897643
62.760 10.936108
62.765 11.076588
62.770 10.639931
62.775 10.298026
62.780 10.015204
62.785 10.049589
62.790 9.928799
62.795 9.54826
62.800 9.165698
62.805 9.503345
62.810 9.814109
62.815 10.004749
62.820 10.207588
62.825 10.63022
62.830 11.111492
62.835 11.747762
62.840 11.717124
62.845 12.137666
62.850 12.191643
62.855 12.008996
62.860 11.919178
62.865 11.414337
62.870 11.010654
62.875 10.735907
62.880 10.380397
62.885 10.23842
62.890 10.112565
62.895 9.869243
62.900 9.485358
62.905 9.398072
62.910 9.279312
62.915 8.951428
62.920 9.190248
62.925 9.473888
62.930 9.298244
62.935 9.781372
62.940 9.692579
62.945 9.947033
62.950 10.002983
62.955 10.058969
62.960 9.952365
62.965 10.117781
62.970 9.944341
62.975 10.370388
62.980 10.151163
62.985 10.302373
62.990 10.247746
62.995 10.191405
63.000 10.339072
63.005 10.222218
63.010 9.705259
63.015 9.844261
63.020 9.450124
63.025 9.251321
63.030 8.960407
63.035 8.418565
63.040 8.476609
63.045 8.845586
63.050 8.498815
63.055 8.481998
63.060 8.578834
63.065 8.999285
63.070 9.419673
63.075 9.022963
63.080 8.621502
63.085 8.70898
63.090 8.64344
63.095 8.218871
63.100 7.762437
63.105 7.712368
63.110 8.180346
63.115 8.275686
63.120 7.965447
63.125 8.289267
63.130 8.620906
63.135 9.220258
63.140 9.445898
63.145 9.363977
63.150 9.599526
63.155 9.934635
63.160 9.70663
63.165 9.865806
63.170 9.486257
63.175 9.123914
63.180 9.084433
63.185 9.29773
63.190 9.13691
63.195 8.663295
63.200 8.262318
63.205 8.24232
63.210 8.577409
63.215 8.451176
63.220 8.103724
63.225 8.09596
63.230 8.062329
63.235 8.314082
63.240 8.161891
63.245 7.6783
63.250 7.778191
63.255 7.936201
63.260 8.089389
63.265 8.312719
63.270 8.324796
63.275 8.422054
63.280 8.696442
63.285 8.853498
63.290 9.124147
63.295 9.474038
63.300 9.70001
63.305 9.590175
63.310 10.041426
63.315 10.38389
63.320 10.06683
63.325 9.994071
63.330 9.800162
63.335 9.79324
63.340 9.560696
63.345 9.01686
63.350 8.730446
63.355 9.03653
63.360 8.899097
63.365 9.06748
63.370 9.082192
63.375 9.588387
63.380 9.967231
63.385 9.741155
63.390 9.493995
63.395 9.521821
63.400 9.55904
63.405 9.450504
63.410 9.562075
63.415 9.490306
63.420 9.952682
63.425 10.233713
63.430 10.272678
63.435 9.772511
63.440 9.490427
63.445 8.913825
63.450 8.899093
63.455 9.208212
63.460 9.208609
63.465 9.466606
63.470 9.743172
63.475 10.150984
63.480 10.812265
63.485 11.157045
63.490 10.421664
63.495 9.979822
63.500 9.984906
63.505 10.038007
63.510 10.218424
63.515 9.621426
63.520 9.261453
63.525 9.689134
63.530 9.631337
63.535 9.703398
63.540 9.6857
63.545 9.815188
63.550 9.743175
63.555 9.923122
63.560 9.970177
63.565 10.038462
63.570 9.730023
63.575 9.544418
63.580 8.864748
63.585 8.747999
63.590 8.897231
63.595 9.078812
63.600 9.15676
63.605 9.017251
63.610 9.037456
63.615 9.461967
63.620 9.812275
63.625 9.459852
63.630 9.293161
63.635 9.395802
63.640 9.66903
63.645 9.81128
63.650 9.880461
63.655 9.982304
63.660 9.939159
63.665 9.886853
63.670 9.635158
63.675 10.02466
63.680 10.273368
63.685 9.958167
63.690 9.617826
63.695 9.231698
63.700 8.544507
63.705 8.694345
63.710 8.444112
63.715 8.603328
63.720 8.57212
63.725 8.319932
63.730 8.999804
63.735 9.733062
63.740 9.546359
63.745 9.288196
63.750 9.052025
63.755 9.097959
63.760 9.201352
63.765 8.62887
63.770 8.344643
63.775 8.900736
63.780 8.646724
63.785 8.189655
63.790 8.258992
63.795 8.422121
63.800 8.227972
63.805 8.184367
63.810 8.023749
63.815 8.24618
63.820 8.661706
63.825 8.729244
63.830 9.054702
63.835 9.64253
63.840 10.148597
63.845 10.183534
63.850 10.034722
63.855 9.709714
63.860 9.474848
63.865 8.994449
63.870 8.580281
63.875 7.953196
63.880 7.757859
63.885 7.734559
63.890 7.735307
63.895 7.709527
63.900 7.893889
63.905 8.128682
63.910 8.232968
63.915 8.186733
63.920 8.193623
63.925 8.317494
63.930 8.559027
63.935 8.494825
63.940 8.366503
63.945 8.545132
63.950 9.21455
63.955 9.621185
63.960 9.375364
63.965 9.085986
63.970 8.781013
63.975 8.85518
63.980 9.306828
63.985 9.121708
63.990 9.280087
63.995 9.460177
64.000 9.374439
64.005 9.872891
64.010 9.826371
64.015 9.329473
64.020 9.233187
64.025 8.994656
64.030 9.055775
64.035 9.528715
64.040 9.084637
64.045 9.025906
64.050 9.026789
64.055 8.727505
64.060 8.735074
64.065 9.025161
64.070 8.992636
64.075 9.217001
64.080 9.406134
64.085 9.089208
64.090 9.246425
64.095 9.387074
64.100 9.113232
64.105 8.792047
64.110 8.99615
64.115 9.1347
64.120 9.661661
64.125 9.470951
64.130 9.340612
64.135 9.747286
64.140 9.863019
64.145 9.050487
64.150 8.872642
64.155 8.458742
64.160 8.371881
64.165 8.598968
64.170 8.132352
64.175 8.119292
64.180 8.477953
64.185 8.123197
64.190 8.042434
64.195 8.0321
64.200 7.94548
64.205 7.995203
64.210 7.964115
64.215 7.675097
64.220 8.094263
64.225 8.155697
64.230 8.226907
64.235 7.950026
64.240 8.316449
64.245 8.16086
64.250 8.424149
64.255 8.365334
64.260 8.758431
64.265 9.279965
64.270 9.672922
64.275 9.4203
64.280 9.908592
64.285 9.795141
64.290 9.76967
64.295 9.316175
64.300 8.85542
64.305 8.773318
64.310 8.995349
64.315 8.598547
64.320 8.569286
64.325 8.923651
64.330 9.309813
64.335 9.292901
64.340 9.449184
64.345 9.328523
64.350 9.603445
64.355 10.076208
64.360 9.613392
64.365 9.21985
64.370 8.976661
64.375 8.827415
64.380 9.11132
64.385 9.342349
64.390 9.021193
64.395 9.311524
64.400 9.642799
64.405 9.85688
64.410 10.154292
64.415 10.533747
64.420 10.368018
64.425 10.46988
64.430 10.598713
64.435 10.768268
64.440 10.888674
64.445 10.530059
64.450 10.171941
64.455 10.279583
64.460 10.533037
64.465 10.516363
64.470 9.972843
64.475 9.989567
64.480 9.877396
64.485 10.128584
64.490 9.958825
64.495 9.468941
64.500 9.463105
64.505 9.740306
64.510 9.466233
64.515 9.453136
64.520 8.804182
64.525 8.956464
64.530 9.474257
64.535 9.610057
64.540 9.634427
64.545 9.665381
64.550 9.770739
64.555 9.830435
64.560 9.506015
64.565 9.090395
64.570 8.879375
64.575 9.006855
64.580 8.939105
64.585 8.964558
64.590 9.316643
64.595 9.279149
64.600 9.685261
64.605 10.087457
64.610 10.165847
64.615 10.072246
64.620 9.704417
64.625 9.629358
64.630 9.840809
64.635 9.311518
64.640 8.693766
64.645 8.683948
64.650 9.516346
64.655 10.238951
64.660 10.488619
64.665 10.508892
64.670 10.986973
64.675 11.417156
64.680 11.553473
64.685 11.334558
64.690 10.716113
64.695 10.388866
64.700 10.447723
64.705 10.631748
64.710 10.803189
64.715 10.494042
64.720 10.414378
64.725 10.802958
64.730 11.003247
64.735 11.073982
64.740 10.947217
64.745 11.253175
64.750 11.079484
64.755 10.889613
64.760 10.710172
64.765 10.623553
64.770 10.652348
64.775 10.795982
64.780 11.052648
64.785 11.467052
64.790 11.591897
64.795 11.898928
64.800 12.403653
64.805 12.120004
64.810 11.576209
64.815 11.348618
64.820 11.703812
64.825 11.735348
64.830 11.838527
64.835 11.428375
64.840 11.643011
64.845 12.057962
64.850 12.07423
64.855 11.829269
64.860 12.121391
64.865 11.769105
64.870 11.774362
64.875 11.83462
64.880 11.680068
64.885 11.829147
64.890 12.011545
64.895 12.087734
64.900 12.453113
64.905 12.726758
64.910 12.860964
64.915 13.512682
64.920 13.68998
64.925 13.442498
64.930 13.475828
64.935 14.210205
64.940 14.207716
64.945 14.521482
64.950 14.46603
64.955 14.132654
64.960 14.184507
64.965 14.216993
64.970 13.831256
64.975 13.674256
64.980 13.397862
64.985 13.129347
64.990 13.349646
64.995 13.704805
65.000 13.638721
65.005 13.539771
65.010 13.56483
65.015 13.599726
65.020 13.926717
65.025 14.302487
65.030 14.363504
65.035 13.96677
65.040 13.805951
65.045 14.070667
65.050 14.225696
65.055 13.878084
65.060 13.742916
65.065 13.448584
65.070 14.034444
65.075 14.440004
65.080 14.099996
65.085 13.696427
65.090 13.630011
65.095 14.002068
65.100 14.674082
65.105 14.529117
65.110 14.269692
65.115 14.485294
65.120 14.91009
65.125 14.615314
65.130 14.116904
65.135 13.652027
65.140 13.090848
65.145 12.854105
65.150 12.278475
65.155 11.726832
65.160 11.617584
65.165 11.587765
65.170 11.623137
65.175 12.089447
65.180 12.163555
65.185 12.268476
65.190 12.464954
65.195 11.971997
65.200 11.520527
65.205 11.472906
65.210 11.713906
65.215 11.855243
65.220 11.925009
65.225 11.758032
65.230 11.995092
65.235 11.95689
65.240 11.478761
65.245 10.682944
65.250 10.321171
65.255 10.108871
65.260 10.316668
65.265 10.505539
65.270 10.436723
65.275 10.465152
65.280 10.81905
65.285 11.375908
65.290 11.640961
65.295 11.496027
65.300 11.459251
65.305 11.751212
65.310 11.714016
65.315 11.501299
65.320 11.086225
65.325 10.589482
65.330 10.762692
65.335 10.935359
65.340 10.685848
65.345 10.578219
65.350 10.377549
65.355 10.125135
65.360 9.83552
65.365 9.736344
65.370 9.375443
65.375 9.469502
65.380 9.500459
65.385 9.70675
65.390 9.990702
65.395 10.203973
65.400 9.893284
65.405 9.782135
65.410 9.196573
65.415 8.672211
65.420 8.33638
65.425 7.912591
65.430 7.853957
65.435 7.879066
65.440 8.099033
65.445 8.562256
65.450 8.675686
65.455 8.667632
65.460 9.225142
65.465 9.392239
65.470 8.99641
65.475 8.556169
65.480 8.542947
65.485 9.001422
65.490 9.125366
65.495 8.928673
65.500 8.932384
65.505 9.131131
65.510 9.691195
65.515 9.515038
65.520 9.57773
65.525 9.524468
65.530 9.199633
65.535 8.95956
65.540 8.866561
65.545 8.383421
65.550 8.093407
65.555 8.276783
65.560 8.628473
65.565 8.807611
65.570 8.82043
65.575 8.789277
65.580 9.379655
65.585 9.259924
65.590 8.831645
65.595 8.868531
65.600 9.177584
65.605 9.415635
65.610 9.959603
65.615 9.811832
65.620 9.723241
65.625 9.511777
65.630 9.14814
65.635 8.724683
65.640 8.534816
65.645 8.121409
65.650 8.146024
65.655 8.658876
65.660 8.879942
65.665 9.030299
65.670 9.411279
65.675 9.212821
65.680 8.993004
65.685 8.84378
65.690 8.832976
65.695 8.713681
65.700 8.860396
65.705 8.929399
65.710 9.178385
65.715 9.095565
65.720 8.77391
65.725 8.577446
65.730 8.373877
65.735 8.494825
65.740 8.830828
65.745 8.729247
65.750 8.737264
65.755 9.062814
65.760 9.183708
65.765 9.591388
65.770 9.114967
65.775 8.908658
65.780 9.115124
65.785 9.399857
65.790 9.128995
65.795 9.007672
65.800 8.418768
65.805 8.212743
65.810 7.79067
65.815 7.709128
65.820 7.381752
65.825 7.720705
65.830 7.896589
65.835 8.095868
65.840 8.375933
65.845 8.276263
65.850 8.377101
65.855 8.231309
65.860 7.89977
65.865 7.873731
65.870 7.858978
65.875 7.698013
65.880 7.989027
65.885 8.035759
65.890 8.287916
65.895 8.085505
65.900 8.07526
65.905 8.433449
65.910 8.630667
65.915 8.659166
65.920 8.863148
65.925 9.052167
65.930 9.390179
65.935 9.567241
65.940 9.213903
65.945 9.328032
65.950 9.495732
65.955 9.180523
65.960 9.092038
65.965 9.569833
65.970 9.76985
65.975 9.718828
65.980 9.395988
65.985 9.118182
65.990 8.94523
65.995 8.539412
66.000 8.060765
66.005 7.726185
66.010 8.032777
66.015 8.222934
66.020 8.711028
66.025 8.843661
66.030 8.841744
66.035 9.062117
66.040 8.903312
66.045 8.580345
66.050 8.698231
66.055 8.386894
66.060 8.452685
66.065 8.628433
66.070 8.679204
66.075 8.610659
66.080 8.591846
66.085 8.832664
66.090 8.529325
66.095 8.583892
66.100 8.393949
66.105 8.207347
66.110 8.36589
66.115 8.416428
66.120 7.948598
66.125 8.622042
66.130 9.064025
66.135 9.288554
66.140 9.069341
66.145 9.237224
66.150 9.317412
66.155 9.26235
66.160 8.788767
66.165 8.400042
66.170 8.397429
66.175 8.777587
66.180 8.500328
66.185 8.533037
66.190 8.636941
66.195 8.696899
66.200 8.324693
66.205 8.035567
66.210 7.667422
66.215 7.695565
66.220 7.495475
66.225 7.657385
66.230 7.618245
66.235 8.028032
66.240 7.929513
66.245 8.060743
66.250 8.188371
66.255 8.460176
66.260 8.4747
66.265 8.712087
66.270 9.037285
66.275 9.009466
66.280 9.196367
66.285 9.247885
66.290 9.135526
66.295 8.975146
66.300 8.687003
66.305 8.367746
66.310 8.633607
66.315 8.455683
66.320 8.208019
66.325 8.017146
66.330 8.03113
66.335 8.384507
66.340 8.687758
66.345 8.656829
66.350 8.847313
66.355 8.930328
66.360 9.426612
66.365 9.411003
66.370 8.865474
66.375 8.215473
66.380 7.987745
66.385 7.881308
66.390 7.645121
66.395 7.720219
66.400 8.206316
66.405 8.451941
66.410 8.963078
66.415 9.375473
66.420 9.773555
66.425 9.912433
66.430 9.625361
66.435 9.666509
66.440 9.810305
66.445 9.462575
66.450 8.839588
66.455 8.128388
66.460 8.041584
66.465 7.823516
66.470 7.885736
66.475 8.004981
66.480 8.369285
66.485 8.735585
66.490 9.325399
66.495 9.502616
66.500 9.819649
66.505 9.787051
66.510 9.840842
66.515 9.592023
66.520 9.6641
66.525 9.999049
66.530 9.555773
66.535 8.908115
66.540 8.850389
66.545 8.657046
66.550 8.675055
66.555 8.290143
66.560 7.945497
66.565 8.080277
66.570 8.259761
66.575 8.159151
66.580 7.874814
66.585 7.959546
66.590 8.192335
66.595 8.367887
66.600 8.227645
66.605 8.49692
66.610 8.745456
66.615 9.062657
66.620 9.502833
66.625 9.764507
66.630 9.772636
66.635 10.077861
66.640 10.255624
66.645 10.145956
66.650 10.187134
66.655 9.754204
66.660 9.537105
66.665 9.235794
66.670 8.886467
66.675 8.254355
66.680 8.223409
66.685 7.971349
66.690 8.241631
66.695 8.415383
66.700 8.566769
66.705 9.452095
66.710 10.029157
66.715 9.814946
66.720 9.72802
66.725 9.276993
66.730 9.235
66.735 8.741722
66.740 8.063612
66.745 7.968905
66.750 8.091667
66.755 8.461743
66.760 8.701001
66.765 8.734407
66.770 9.257607
66.775 9.079934
66.780 8.869269
66.785 8.625026
66.790 8.283477
66.795 8.243041
66.800 8.350924
66.805 8.242531
66.810 8.09833
66.815 8.364138
66.820 8.890031
66.825 9.13309
66.830 9.326826
66.835 9.308043
66.840 9.161314
66.845 9.068083
66.850 8.448577
66.855 8.103731
66.860 8.046104
66.865 7.909435
66.870 7.659671
66.875 7.899413
66.880 8.142792
66.885 8.716359
66.890 8.721036
66.895 8.665302
66.900 8.808492
66.905 8.72595
66.910 8.510455
66.915 8.394161
66.920 8.211006
66.925 8.018704
66.930 8.12663
66.935 7.838043
66.940 7.996264
66.945 8.179017
66.950 8.355424
66.955 8.190126
66.960 8.21327
66.965 8.205151
66.970 8.833522
66.975 9.005458
66.980 8.608863
66.985 8.734672
66.990 8.973778
66.995 8.567499
67.000 7.889652
67.005 7.206004
67.010 7.387809
67.015 7.790342
67.020 7.818694
67.025 7.983463
67.030 8.516355
67.035 9.079295
67.040 9.286515
67.045 9.392505
67.050 9.520949
67.055 9.111087
67.060 8.720882
67.065 8.556856
67.070 8.984178
67.075 9.210323
67.080 8.747395
67.085 8.608602
67.090 8.663168
67.095 8.835437
67.100 8.634195
67.105 7.909672
67.110 7.929119
67.115 8.18774
67.120 8.284925
67.125 8.585945
67.130 8.852397
67.135 8.607077
67.140 8.168151
67.145 7.952844
67.150 7.642525
67.155 7.443475
67.160 7.541756
67.165 7.709937
67.170 8.129976
67.175 8.445441
67.180 8.283615
67.185 8.498255
67.190 8.616302
67.195 8.482485
67.200 8.263266
67.205 8.281758
67.210 8.445388
67.215 8.851754
67.220 9.250652
67.225 9.414176
67.230 9.525001
67.235 9.496709
67.240 9.404187
67.245 9.154237
67.250 8.747404
67.255 8.390121
67.260 8.332605
67.265 8.169033
67.270 8.290215
67.275 8.678329
67.280 8.695214
67.285 8.618482
67.290 8.687338
67.295 8.839848
67.300 9.064811
67.305 8.916723
67.310 8.545468
67.315 8.682972
67.320 8.996279
67.325 8.709775
67.330 8.435458
67.335 7.990071
67.340 7.912749
67.345 8.139983
67.350 7.993515
67.355 7.920198
67.360 7.592739
67.365 7.304981
67.370 7.532811
67.375 7.853244
67.380 8.027068
67.385 8.432229
67.390 8.565665
67.395 9.00221
67.400 9.231351
67.405 9.533698
67.410 9.163944
67.415 9.244967
67.420 9.040489
67.425 8.729639
67.430 8.882215
67.435 8.98469
67.440 8.875478
67.445 9.148689
67.450 9.14544
67.455 9.218949
67.460 9.410354
67.465 9.560958
67.470 9.343462
67.475 9.565203
67.480 9.499497
67.485 8.858622
67.490 8.808031
67.495 8.92438
67.500 8.679071
67.505 8.649973
67.510 8.535106
67.515 8.169123
67.520 8.087023
67.525 7.871519
67.530 7.928621
67.535 8.007715
67.540 7.813555
67.545 7.57663
67.550 7.821189
67.555 7.985485
67.560 7.900721
67.565 7.760167
67.570 7.681593
67.575 7.967553
67.580 8.256686
67.585 8.689764
67.590 9.148203
67.595 9.271079
67.600 9.234095
67.605 9.431116
67.610 9.519859
67.615 9.468519
67.620 9.524767
67.625 9.314914
67.630 9.311752
67.635 9.849117
67.640 9.634615
67.645 9.39017
67.650 9.461487
67.655 9.039342
67.660 8.933529
67.665 8.555717
67.670 8.140233
67.675 8.128353
67.680 7.944277
67.685 8.090795
67.690 8.207461
67.695 8.321247
67.700 8.327196
67.705 8.275233
67.710 8.106342
67.715 8.110158
67.720 7.969126
67.725 7.882991
67.730 7.925437
67.735 8.015576
67.740 7.94156
67.745 8.243582
67.750 8.31284
67.755 8.317156
67.760 8.848773
67.765 9.044788
67.770 9.223134
67.775 9.06357
67.780 9.068888
67.785 8.890545
67.790 9.041975
67.795 8.518039
67.800 8.684175
67.805 9.139371
67.810 9.613661
67.815 9.616037
67.820 9.958844
67.825 9.799101
67.830 9.564718
67.835 9.243053
67.840 9.010018
67.845 8.995086
67.850 9.021087
67.855 9.033461
67.860 9.11065
67.865 9.667068
67.870 9.48143
67.875 9.487697
67.880 9.283997
67.885 9.319178
67.890 9.351731
67.895 9.707868
67.900 9.638522
67.905 9.689339
67.910 10.050079
67.915 10.227724
67.920 10.238764
67.925 10.209196
67.930 10.121305
67.935 10.478011
67.940 10.468584
67.945 10.34586
67.950 10.5904
67.955 10.519586
67.960 10.118775
67.965 9.837018
67.970 9.517178
67.975 9.388307
67.980 9.20064
67.985 9.371063
67.990 9.238574
67.995 9.28478
68.000 9.115133
68.005 9.135527
68.010 9.542165
68.015 9.891993
68.020 9.936709
68.025 10.383002
68.030 10.690272
68.035 10.610394
68.040 10.472433
68.045 10.201491
68.050 9.649619
68.055 9.483047
68.060 9.471917
68.065 9.302116
68.070 9.52947
68.075 9.540482
68.080 9.760348
68.085 9.78728
68.090 9.196547
68.095 9.205604
68.100 9.357527
68.105 9.741328
68.110 9.449925
68.115 9.264604
68.120 9.146336
68.125 9.394282
68.130 9.118408
68.135 9.337686
68.140 9.021404
68.145 9.69277
68.150 9.605135
68.155 9.856898
68.160 10.08244
68.165 9.668069
68.170 9.25116
68.175 8.771771
68.180 8.187697
68.185 8.308285
68.190 8.115748
68.195 7.766585
68.200 8.294537
68.205 8.188942
68.210 8.463131
68.215 8.568504
68.220 8.481429
68.225 8.644623
68.230 8.829615
68.235 8.094545
68.240 7.910008
68.245 7.684457
68.250 7.613158
68.255 7.200308
68.260 7.209626
68.265 7.392571
68.270 7.943929
68.275 8.458788
68.280 8.365572
68.285 8.173107
68.290 8.117284
68.295 7.721774
68.300 7.948127
68.305 8.043415
68.310 8.150217
68.315 8.194088
68.320 8.526786
68.325 8.78618
68.330 9.047414
68.335 8.58392
68.340 8.283724
68.345 8.111952
68.350 7.975573
68.355 7.941671
68.360 7.849747
68.365 7.788378
68.370 8.042172
68.375 7.933773
68.380 7.989779
68.385 8.484179
68.390 8.60449
68.395 8.471043
68.400 8.450684
68.405 8.517034
68.410 8.489115
68.415 8.478022
68.420 8.17598
68.425 8.032334
68.430 8.1339
68.435 8.176027
68.440 7.973965
68.445 8.180783
68.450 8.061594
68.455 7.981274
68.460 8.468412
68.465 8.268543
68.470 8.142365
68.475 8.003137
68.480 7.902352
68.485 7.723095
68.490 7.846913
68.495 7.704938
68.500 7.774341
68.505 7.718814
68.510 7.881791
68.515 7.929107
68.520 7.692631
68.525 7.716589
68.530 8.077998
68.535 8.404752
68.540 8.482219
68.545 8.423395
68.550 8.679549
68.555 8.90405
68.560 8.361486
68.565 8.020522
68.570 7.73346
68.575 7.674129
68.580 7.592587
68.585 7.328258
68.590 7.616405
68.595 7.58309
68.600 7.562542
68.605 7.813176
68.610 7.948025
68.615 8.266621
68.620 8.655549
68.625 8.761068
68.630 8.731974
68.635 8.772479
68.640 9.039959
68.645 8.948833
68.650 8.7325
68.655 8.615494
68.660 8.382698
68.665 8.187415
68.670 7.819224
68.675 7.785896
68.680 7.956555
68.685 7.995117
68.690 7.945181
68.695 8.599368
68.700 9.08493
68.705 9.422416
68.710 9.349924
68.715 9.554564
68.720 9.799158
68.725 9.983684
68.730 9.52224
68.735 9.08914
68.740 8.679141
68.745 8.504726
68.750 8.139691
68.755 7.614159
68.760 7.399562
68.765 8.003433
68.770 8.584751
68.775 8.887109
68.780 8.881842
68.785 8.917949
68.790 9.400249
68.795 9.331833
68.800 8.792409
68.805 8.788364
68.810 8.865948
68.815 8.857796
68.820 8.926913
68.825 8.711083
68.830 9.140723
68.835 9.483761
68.840 9.231633
68.845 9.055849
68.850 9.221992
68.855 9.322981
68.860 9.23316
68.865 8.667738
68.870 8.414577
68.875 8.002269
68.880 7.821613
68.885 7.522502
68.890 7.482834
68.895 7.737198
68.900 7.764997
68.905 7.955422
68.910 8.144696
68.915 8.177305
68.920 8.576978
68.925 8.616961
68.930 8.389576
68.935 8.299846
68.940 7.888844
68.945 7.985405
68.950 7.999972
68.955 7.681127
68.960 7.937705
68.965 8.399613
68.970 8.902699
68.975 9.345432
68.980 9.58524
68.985 9.525508
68.990 9.840116
68.995 9.661898
69.000 9.360163
69.005 8.998086
69.010 8.955975
69.015 8.602534
69.020 8.722421
69.025 8.413034
69.030 7.856486
69.035 7.989328
69.040 8.206022
69.045 8.41402
69.050 8.917119
69.055 9.398937
69.060 9.786349
69.065 10.387501
69.070 10.243726
69.075 10.429867
69.080 10.569925
69.085 10.491549
69.090 10.527581
69.095 10.152295
69.100 10.148667
69.105 9.80801
69.110 9.667146
69.115 9.823298
69.120 9.923118
69.125 9.30544
69.130 8.935903
69.135 9.168275
69.140 9.476958
69.145 9.386184
69.150 8.883577
69.155 8.374358
69.160 8.438568
69.165 9.04599
69.170 8.832542
69.175 8.453093
69.180 8.384323
69.185 8.470545
69.190 8.679352
69.195 8.703943
69.200 8.447014
69.205 8.118192
69.210 7.941083
69.215 7.545149
69.220 7.558894
69.225 7.697868
69.230 7.787159
69.235 7.874525
69.240 8.226071
69.245 8.702319
69.250 8.494994
69.255 8.20053
69.260 8.175247
69.265 8.21747
69.270 8.47172
69.275 8.510331
69.280 8.102038
69.285 8.580755
69.290 8.988534
69.295 9.151505
69.300 9.237595
69.305 8.953894
69.310 9.344011
69.315 9.830927
69.320 10.010048
69.325 10.081405
69.330 10.01321
69.335 9.836631
69.340 9.433612
69.345 9.17879
69.350 9.239338
69.355 9.167809
69.360 9.204562
69.365 9.117517
69.370 8.951982
69.375 9.335375
69.380 9.514937
69.385 9.67282
69.390 9.752082
69.395 9.574464
69.400 9.634448
69.405 9.66553
69.410 9.582
69.415 8.936882
69.420 8.404088
69.425 7.998882
69.430 8.096147
69.435 8.129341
69.440 8.083014
69.445 7.902214
69.450 8.604078
69.455 8.894051
69.460 8.837317
69.465 8.597001
69.470 8.672626
69.475 8.578246
69.480 8.817133
69.485 8.892371
69.490 8.8198
69.495 8.811628
69.500 8.607606
69.505 8.398213
69.510 8.483251
69.515 8.085561
69.520 7.563483
69.525 7.354428
69.530 7.202817
69.535 7.705346
69.540 7.929739
69.545 8.235705
69.550 7.845262
69.555 7.719461
69.560 8.029249
69.565 8.116701
69.570 8.047148
69.575 8.33056
69.580 8.143306
69.585 8.445034
69.590 8.575633
69.595 8.11822
69.600 8.439567
69.605 8.096685
69.610 7.889689
69.615 7.872585
69.620 8.02406
69.625 8.23138
69.630 8.333968
69.635 7.819148
69.640 7.668841
69.645 7.415996
69.650 7.562565
69.655 8.079025
69.660 7.777041
69.665 7.968417
69.670 8.185719
69.675 9.002701
69.680 9.651347
69.685 9.615542
69.690 9.561262
69.695 9.684834
69.700 10.05005
69.705 9.654422
69.710 8.933414
69.715 8.553001
69.720 8.394924
69.725 8.39322
69.730 8.351884
69.735 8.330591
69.740 8.648536
69.745 8.766085
69.750 8.819467
69.755 8.741302
69.760 8.420959
69.765 8.385421
69.770 8.022879
69.775 7.789608
69.780 7.710434
69.785 7.608209
69.790 7.68925
69.795 7.69028
69.800 7.963248
69.805 8.785111
69.810 9.45634
69.815 9.847029
69.820 9.902884
69.825 10.217436
69.830 10.582153
69.835 10.712192
69.840 10.532713
69.845 10.244537
69.850 9.56248
69.855 9.649043
69.860 9.427965
69.865 9.384551
69.870 8.982741
69.875 8.847093
69.880 8.811563
69.885 9.319786
69.890 9.143689
69.895 9.141279
69.900 8.860312
69.905 8.516432
69.910 8.413591
69.915 8.365896
69.920 8.212459
69.925 8.251149
69.930 8.260933
69.935 8.592831
69.940 8.428044
69.945 8.309121
69.950 8.217627
69.955 8.586728
69.960 8.303009
69.965 8.038186
69.970 8.305621
69.975 8.683914
69.980 8.89087
69.985 8.89236
69.990 8.913527
69.995 9.314286
70.000 9.705135
70.005 9.397532
70.010 9.269155
70.015 9.265518
70.020 9.456548
70.025 9.204072
70.030 8.919281
70.035 8.654676
70.040 8.367264
70.045 8.414792
70.050 8.219192
70.055 8.032885
70.060 7.811063
70.065 7.777116
70.070 7.832793
70.075 8.066142
70.080 7.886794
70.085 7.990019
70.090 8.158031
70.095 8.32287
70.100 8.535715
70.105 8.884173
70.110 8.976877
70.115 8.999364
70.120 8.984869
70.125 9.183235
70.130 9.216287
70.135 8.615529
70.140 8.249979
70.145 8.62067
70.150 8.967022
70.155 8.791537
70.160 8.528768
70.165 8.711386
70.170 9.115664
70.175 9.015381
70.180 8.470742
70.185 8.503729
70.190 8.726248
70.195 8.639114
70.200 8.401088
70.205 8.361403
70.210 8.524981
70.215 8.700468
70.220 8.711625
70.225 8.645438
70.230 9.039405
70.235 9.531137
70.240 9.785936
70.245 10.29002
70.250 10.149364
70.255 10.293716
70.260 10.404087
70.265 9.901648
70.270 9.876933
70.275 9.701034
70.280 9.393641
70.285 9.091804
70.290 8.846742
70.295 9.120162
70.300 9.398004
70.305 9.086659
70.310 9.203015
70.315 9.49896
70.320 9.705894
70.325 9.313681
70.330 9.047386
70.335 8.684603
70.340 8.634646
70.345 8.530094
70.350 8.652746
70.355 8.733232
70.360 8.339319
70.365 8.237123
70.370 8.748504
70.375 8.415797
70.380 8.337769
70.385 8.396604
70.390 8.507877
70.395 8.619337
70.400 8.739453
70.405 8.686328
70.410 8.998018
70.415 8.775591
70.420 8.339986
70.425 8.645802
70.430 8.856826
70.435 8.652472
70.440 8.560567
70.445 8.974386
70.450 9.157009
70.455 9.022277
70.460 9.031347
70.465 9.240258
70.470 9.239798
70.475 9.317975
70.480 9.134936
70.485 9.220814
70.490 9.488585
70.495 9.163816
70.500 9.255504
70.505 9.445705
70.510 9.17672
70.515 9.055948
70.520 8.843952
70.525 9.127973
70.530 9.471654
70.535 9.539646
70.540 9.820349
70.545 10.297489
70.550 10.370518
70.555 10.682786
70.560 10.256656
70.565 9.860994
70.570 9.463013
70.575 8.977655
70.580 8.863151
70.585 8.63416
70.590 8.2345
70.595 7.932348
70.600 8.275414
70.605 8.235297
70.610 8.443395
70.615 8.145526
70.620 8.369552
70.625 8.828705
70.630 8.820216
70.635 8.766194
70.640 8.876786
70.645 8.510981
70.650 8.178592
70.655 7.611197
70.660 7.503108
70.665 7.873165
70.670 7.688176
70.675 7.654229
70.680 7.78005
70.685 8.259412
70.690 8.5137
70.695 8.183376
70.700 8.114972
70.705 8.214394
70.710 8.091835
70.715 7.963
70.720 8.056097
70.725 8.010314
70.730 8.017966
70.735 8.003172
70.740 7.880917
70.745 8.04157
70.750 8.293559
70.755 8.112289
70.760 8.173094
70.765 8.039213
70.770 7.857847
70.775 7.744169
70.780 7.677787
70.785 7.368506
70.790 7.641322
70.795 7.491011
70.800 7.851651
70.805 8.274159
70.810 8.568268
70.815 8.643886
70.820 8.378549
70.825 8.079123
70.830 8.618368
70.835 8.574554
70.840 8.447303
70.845 8.11485
70.850 8.133611
70.855 8.609414
70.860 8.638807
70.865 8.315883
70.870 8.176545
70.875 8.068891
70.880 8.171429
70.885 8.392673
70.890 8.854362
70.895 9.151694
70.900 9.155766
70.905 9.209161
70.910 9.528602
70.915 9.557122
70.920 8.838195
70.925 8.56255
70.930 8.551838
70.935 8.717688
70.940 8.634989
70.945 8.300354
70.950 8.239664
70.955 8.031406
70.960 8.050811
70.965 8.009743
70.970 7.76646
70.975 8.066293
70.980 8.25069
70.985 8.445526
70.990 8.821392
70.995 8.437608
71.000 8.311176
71.005 8.337346
71.010 8.083206
71.015 7.879261
71.020 7.593702
71.025 7.536102
71.030 7.922528
71.035 8.085446
71.040 8.211451
71.045 8.482
71.050 8.731584
71.055 9.073689
71.060 9.376557
71.065 9.230755
71.070 9.272377
71.075 9.006597
71.080 8.777603
71.085 8.664941
71.090 8.503924
71.095 8.161873
71.100 8.23425
71.105 8.323412
71.110 8.456161
71.115 8.62327
71.120 8.6094
71.125 8.398305
71.130 8.050802
71.135 7.538791
71.140 7.248579
71.145 6.827885
71.150 6.69
71.155 6.790922
71.160 7.137039
71.165 7.229002
71.170 7.555184
71.175 7.630235
71.180 8.249688
71.185 8.580789
71.190 8.82627
71.195 8.957518
71.200 8.674321
71.205 8.54909
71.210 8.426414
71.215 8.129735
71.220 7.742183
71.225 7.413185
71.230 7.517455
71.235 8.063533
71.240 7.902001
71.245 7.850916
71.250 8.20088
71.255 8.48442
71.260 8.440187
71.265 8.670438
71.270 8.742576
71.275 8.762576
71.280 8.659128
71.285 8.262518
71.290 8.053471
71.295 7.797808
71.300 7.603991
71.305 7.539043
71.310 7.574397
71.315 7.710885
71.320 7.95682
71.325 8.052117
71.330 8.059222
71.335 8.305491
71.340 8.312312
71.345 8.431652
71.350 8.552035
71.355 8.755749
71.360 8.924455
71.365 8.807542
71.370 8.673319
71.375 9.161813
71.380 9.048879
71.385 8.858969
71.390 8.860212
71.395 8.960003
71.400 9.173673
71.405 9.440771
71.410 9.506265
71.415 9.260123
71.420 9.1675
71.425 8.957007
71.430 8.853573
71.435 8.818396
71.440 8.411934
71.445 8.370946
71.450 8.718987
71.455 8.539368
71.460 8.574233
71.465 8.587829
71.470 8.726515
71.475 8.606217
71.480 8.580465
71.485 8.443871
71.490 8.870198
71.495 8.656929
71.500 8.422348
71.505 8.138893
71.510 7.894602
71.515 7.949811
71.520 8.246898
71.525 8.110799
71.530 8.356814
71.535 8.064298
71.540 8.426918
71.545 8.425879
71.550 8.422345
71.555 8.328647
71.560 8.191791
71.565 7.859729
71.570 7.678465
71.575 7.671363
71.580 7.953556
71.585 8.045907
71.590 7.906031
71.595 7.889111
71.600 8.295792
71.605 8.447817
71.610 8.444295
71.615 8.158312
71.620 8.04311
71.625 8.151942
71.630 8.234885
71.635 8.464729
71.640 8.451453
71.645 8.237072
71.650 8.258848
71.655 8.461197
71.660 8.59892
71.665 8.688686
71.670 8.377831
71.675 8.072247
71.680 8.266181
71.685 8.172903
71.690 7.842401
71.695 7.600875
71.700 7.430531
71.705 7.468178
71.710 7.994329
71.715 8.215135
71.720 8.501844
71.725 8.828922
71.730 8.564053
71.735 8.628245
71.740 8.862524
71.745 8.686707
71.750 8.556417
71.755 8.263586
71.760 8.253937
71.765 8.552035
71.770 8.457454
71.775 8.116961
71.780 7.964879
71.785 7.922477
71.790 7.920849
71.795 7.823462
71.800 7.782595
71.805 7.65091
71.810 7.750289
71.815 7.748341
71.820 7.82042
71.825 7.872132
71.830 7.977448
71.835 8.104399
71.840 8.008574
71.845 8.178737
71.850 8.195397
71.855 8.161481
71.860 7.921193
71.865 8.274275
71.870 8.172846
71.875 8.093059
71.880 7.53865
71.885 7.580569
71.890 7.730011
71.895 8.082766
71.900 7.940434
71.905 7.859324
71.910 8.327202
71.915 8.618612
71.920 8.59026
71.925 8.284656
71.930 7.933162
71.935 8.315425
71.940 8.387046
71.945 8.779313
71.950 8.585838
71.955 8.394367
71.960 8.572141
71.965 8.170776
71.970 8.231067
71.975 8.194014
71.980 8.167426
71.985 8.212291
71.990 8.185163
71.995 8.436271
72.000 8.677569
72.005 8.834893
72.010 8.52877
72.015 8.638131
72.020 9.174637
72.025 9.487971
72.030 9.447358
72.035 9.156016
72.040 8.891914
72.045 8.560124
72.050 7.918447
72.055 7.601076
72.060 7.438291
72.065 7.479056
72.070 7.50356
72.075 7.922527
72.080 7.816209
72.085 7.58916
72.090 7.515659
72.095 7.31389
72.100 7.416331
72.105 7.290273
72.110 7.370361
72.115 8.000637
72.120 8.125529
72.125 8.351473
72.130 8.29718
72.135 8.243457
72.140 8.059435
72.145 8.114058
72.150 8.460479
72.155 8.818602
72.160 8.288178
72.165 8.200919
72.170 8.083746
72.175 8.415023
72.180 8.288163
72.185 8.197021
72.190 8.383129
72.195 8.866624
72.200 9.015908
72.205 9.382842
72.210 9.256126
72.215 8.771852
72.220 8.40995
72.225 8.126479
72.230 8.254217
72.235 8.349873
72.240 8.586747
72.245 8.870062
72.250 8.646705
72.255 8.961926
72.260 8.935236
72.265 8.953691
72.270 8.590253
72.275 7.859688
72.280 7.839899
72.285 8.300823
72.290 8.586321
72.295 8.745891
72.300 8.252608
72.305 8.486843
72.310 8.75562
72.315 8.870131
72.320 8.248446
72.325 8.071326
72.330 8.42295
72.335 8.929507
72.340 8.992723
72.345 9.042775
72.350 9.235399
72.355 9.205864
72.360 9.339679
72.365 9.127325
72.370 9.00886
72.375 9.088583
72.380 8.947715
72.385 9.199626
72.390 9.247544
72.395 8.853636
72.400 9.094302
72.405 9.169275
72.410 9.16734
72.415 9.127245
72.420 9.153009
72.425 9.261451
72.430 9.221664
72.435 8.869271
72.440 8.404486
72.445 8.209894
72.450 8.19058
72.455 7.937961
72.460 7.542044
72.465 7.578367
72.470 7.93468
72.475 8.338021
72.480 8.262018
72.485 8.022933
72.490 8.024289
72.495 8.485039
72.500 8.410563
72.505 8.04939
72.510 8.020245
72.515 8.447808
72.520 8.749903
72.525 8.479506
72.530 8.195105
72.535 8.288186
72.540 8.730458
72.545 8.39294
72.550 8.043148
72.555 7.621283
72.560 7.684325
72.565 7.61515
72.570 7.385036
72.575 7.057939
72.580 7.273631
72.585 7.67545
72.590 8.089815
72.595 8.094184
72.600 8.170845
72.605 8.552343
72.610 8.52011
72.615 7.885284
72.620 7.867393
72.625 7.81661
72.630 8.164835
72.635 8.523836
72.640 8.234391
72.645 8.66306
72.650 8.840891
72.655 8.748248
72.660 8.793736
72.665 8.302027
72.670 8.070616
72.675 8.148106
72.680 8.165823
72.685 7.860402
72.690 7.653741
72.695 7.932271
72.700 8.268352
72.705 8.208096
72.710 8.258361
72.715 8.296113
72.720 8.590362
72.725 8.73763
72.730 8.66462
72.735 8.526784
72.740 8.473054
72.745 8.592987
72.750 9.061399
72.755 9.378005
72.760 8.829888
72.765 8.675763
72.770 8.854915
72.775 8.789216
72.780 8.597305
72.785 7.69426
72.790 7.486697
72.795 7.418421
72.800 7.686376
72.805 7.819046
72.810 7.446277
72.815 7.518079
72.820 7.821232
72.825 7.93019
72.830 8.391556
72.835 8.123045
72.840 8.246853
72.845 8.87509
72.850 8.826476
72.855 8.58307
72.860 8.48372
72.865 8.262971
72.870 8.179877
72.875 7.851154
72.880 7.452485
72.885 7.739866
72.890 8.239562
72.895 8.426594
72.900 8.621015
72.905 8.442916
72.910 8.579651
72.915 8.609619
72.920 8.907073
72.925 8.896168
72.930 8.783879
72.935 8.984019
72.940 9.414701
72.945 9.341679
72.950 9.188734
72.955 8.590253
72.960 8.823819
72.965 8.584427
72.970 8.254807
72.975 7.808697
72.980 7.738814
72.985 7.665319
72.990 7.339706
72.995 6.805187
73.000 6.577451
