!@!!GADDS PLOTSO FILE: Chi integration type
!@!!Title/SampleName: map-175
!@!!Comment: ?
!@!!User: Bruker Instrument Administrator
!@!!Site: University of Illinois Chicago
!@!!Frame: map-175_01_000.gfrm
!@!!Wavelengths    1.54184   1.54056   1.54439
!@!!Frame angles: 2Theta: 63.000 Omega: 50.000 Phi: 0.000 Chi: 90.000
!@!!Integration range: 2Theta: 53.000 to 73.000  Gamma: -105.000 to -75.000
!@!!Integration method: bin normalized
!@!N
!@!SS
!@!M
!@!L 0.0 0.0 0.0 0.0
!@!XDegrees
!@!YCounts
53.000 4.371144
53.005 4.421346
53.010 4.466141
53.015 4.345281
53.020 4.323884
53.025 4.33939
53.030 4.693655
53.035 5.092373
53.040 5.313756
53.045 5.102789
53.050 5.265923
53.055 5.452397
53.060 5.36358
53.065 5.08629
53.070 4.780236
53.075 4.647844
53.080 4.603012
53.085 4.704623
53.090 4.492198
53.095 4.511498
53.100 4.322361
53.105 4.209354
53.110 4.193825
53.115 4.058595
53.120 3.964789
53.125 3.991396
53.130 4.241838
53.135 4.282845
53.140 4.492259
53.145 4.758606
53.150 4.586563
53.155 4.443436
53.160 4.664332
53.165 4.808107
53.170 5.192555
53.175 5.089936
53.180 5.152029
53.185 5.746214
53.190 5.63246
53.195 5.07759
53.200 4.796465
53.205 4.371619
53.210 4.104293
53.215 3.950099
53.220 3.99239
53.225 4.122429
53.230 4.263121
53.235 4.265834
53.240 4.573461
53.245 4.788629
53.250 4.93347
53.255 4.729542
53.260 5.116662
53.265 5.073755
53.270 5.338703
53.275 5.567475
53.280 5.653178
53.285 5.732657
53.290 5.685289
53.295 5.693878
53.300 5.959561
53.305 5.782763
53.310 5.323695
53.315 5.291405
53.320 5.231255
53.325 5.209464
53.330 5.079954
53.335 4.677269
53.340 4.658686
53.345 4.912357
53.350 4.900508
53.355 4.926969
53.360 4.998321
53.365 4.878142
53.370 4.719718
53.375 4.570835
53.380 4.413181
53.385 4.432276
53.390 4.4846
53.395 4.381206
53.400 4.819286
53.405 5.010999
53.410 5.394001
53.415 5.482094
53.420 5.264358
53.425 5.397656
53.430 5.465291
53.435 5.438016
53.440 5.289896
53.445 5.158947
53.450 5.317194
53.455 5.362587
53.460 5.144504
53.465 5.076001
53.470 4.883177
53.475 4.830664
53.480 4.411453
53.485 4.424736
53.490 4.482073
53.495 4.742288
53.500 4.527329
53.505 4.633627
53.510 4.63087
53.515 4.975897
53.520 4.825516
53.525 4.632108
53.530 4.705962
53.535 4.89732
53.540 5.233963
53.545 4.939441
53.550 4.822472
53.555 4.976989
53.560 5.090697
53.565 4.986166
53.570 4.825418
53.575 4.532086
53.580 4.622617
53.585 4.459288
53.590 4.239236
53.595 4.214937
53.600 4.29677
53.605 4.566573
53.610 4.701756
53.615 4.661643
53.620 4.943857
53.625 4.823841
53.630 4.959476
53.635 4.763794
53.640 4.472291
53.645 4.503016
53.650 4.830152
53.655 4.49893
53.660 4.773707
53.665 4.473164
53.670 4.516108
53.675 4.571734
53.680 4.745866
53.685 4.726942
53.690 4.64848
53.695 4.398566
53.700 4.619631
53.705 4.650897
53.710 4.553346
53.715 4.599813
53.720 4.886853
53.725 5.440776
53.730 5.353877
53.735 5.255924
53.740 5.529859
53.745 5.533557
53.750 4.908858
53.755 4.508628
53.760 4.37411
53.765 4.695885
53.770 5.034157
53.775 4.748981
53.780 4.961856
53.785 5.4907
53.790 5.434676
53.795 5.691126
53.800 5.547691
53.805 5.804977
53.810 5.905834
53.815 5.99201
53.820 6.245477
53.825 6.704346
53.830 6.240113
53.835 6.081147
53.840 5.855361
53.845 5.862654
53.850 5.696186
53.855 5.409402
53.860 4.958033
53.865 4.996959
53.870 4.949209
53.875 4.836227
53.880 5.03315
53.885 4.956669
53.890 4.81076
53.895 5.101132
53.900 5.363379
53.905 5.632588
53.910 5.614209
53.915 5.229643
53.920 5.137221
53.925 4.940138
53.930 4.589772
53.935 4.446292
53.940 4.296078
53.945 4.590841
53.950 4.801972
53.955 4.985496
53.960 5.12595
53.965 5.146575
53.970 4.895463
53.975 4.472451
53.980 4.465942
53.985 4.156692
53.990 3.966241
53.995 4.139587
54.000 4.36698
54.005 4.5629
54.010 4.696512
54.015 4.435467
54.020 4.422924
54.025 4.606316
54.030 4.760008
54.035 4.872158
54.040 5.282593
54.045 5.640153
54.050 6.187081
54.055 6.17044
54.060 5.909797
54.065 5.795094
54.070 5.915495
54.075 5.972884
54.080 5.731327
54.085 5.539361
54.090 5.659878
54.095 5.717333
54.100 5.415627
54.105 4.90744
54.110 4.670438
54.115 4.699941
54.120 4.532006
54.125 4.284257
54.130 4.260203
54.135 4.322678
54.140 4.423356
54.145 4.285467
54.150 4.339076
54.155 4.909631
54.160 5.255328
54.165 5.683477
54.170 6.161558
54.175 6.175686
54.180 6.280551
54.185 6.215356
54.190 5.731576
54.195 5.567007
54.200 4.795712
54.205 4.531047
54.210 4.570148
54.215 4.36762
54.220 4.440143
54.225 4.635875
54.230 4.645893
54.235 4.974104
54.240 4.944941
54.245 4.906481
54.250 4.957818
54.255 5.020194
54.260 5.180908
54.265 5.280175
54.270 5.488175
54.275 5.748881
54.280 5.569026
54.285 5.677317
54.290 5.629814
54.295 5.161005
54.300 5.039027
54.305 4.854865
54.310 4.77309
54.315 5.200282
54.320 4.99979
54.325 5.160074
54.330 5.337745
54.335 5.444007
54.340 5.420136
54.345 5.575255
54.350 5.457728
54.355 5.376992
54.360 5.62473
54.365 5.965517
54.370 5.953206
54.375 5.874099
54.380 5.706147
54.385 5.7205
54.390 5.551823
54.395 5.147784
54.400 4.475603
54.405 4.295077
54.410 4.229313
54.415 4.179462
54.420 4.538749
54.425 4.923712
54.430 5.045826
54.435 5.187051
54.440 5.74319
54.445 6.007755
54.450 5.840515
54.455 5.480697
54.460 5.438488
54.465 5.822551
54.470 6.103207
54.475 5.516713
54.480 5.572823
54.485 5.771687
54.490 5.965601
54.495 5.994837
54.500 5.686207
54.505 5.399627
54.510 5.429066
54.515 5.379358
54.520 5.387396
54.525 5.312345
54.530 5.205545
54.535 5.350511
54.540 5.356128
54.545 5.327225
54.550 5.168159
54.555 5.157357
54.560 5.259723
54.565 5.299708
54.570 5.09602
54.575 5.066499
54.580 5.200329
54.585 5.167408
54.590 5.00226
54.595 4.915251
54.600 5.145484
54.605 5.38513
54.610 5.441052
54.615 5.255323
54.620 5.437373
54.625 5.391222
54.630 5.316245
54.635 5.062573
54.640 5.168448
54.645 5.080182
54.650 5.187404
54.655 5.300793
54.660 5.696805
54.665 6.211311
54.670 6.215112
54.675 6.262474
54.680 6.531105
54.685 6.338861
54.690 6.359037
54.695 6.24263
54.700 6.156245
54.705 6.267527
54.710 6.445988
54.715 6.055867
54.720 5.990379
54.725 5.719613
54.730 5.348195
54.735 5.25458
54.740 5.088627
54.745 5.197662
54.750 5.68821
54.755 5.683532
54.760 5.541228
54.765 5.385882
54.770 5.310343
54.775 5.503857
54.780 5.631126
54.785 5.522989
54.790 5.778483
54.795 6.285508
54.800 6.838915
54.805 6.972425
54.810 6.814089
54.815 6.24634
54.820 6.092416
54.825 6.446074
54.830 6.074711
54.835 5.942006
54.840 5.851247
54.845 5.90648
54.850 6.119664
54.855 6.081035
54.860 5.742666
54.865 5.531318
54.870 5.554254
54.875 5.759532
54.880 5.940578
54.885 6.100293
54.890 6.062478
54.895 5.917043
54.900 5.863789
54.905 5.38551
54.910 5.401571
54.915 5.174344
54.920 5.198533
54.925 5.29481
54.930 5.623962
54.935 5.840044
54.940 5.684605
54.945 5.458552
54.950 5.663185
54.955 5.831992
54.960 5.63788
54.965 5.382435
54.970 5.705128
54.975 6.040884
54.980 6.189395
54.985 5.808934
54.990 5.635625
54.995 5.90291
55.000 6.122234
55.005 5.904347
55.010 5.978777
55.015 5.840895
55.020 6.159854
55.025 6.208997
55.030 5.857396
55.035 5.582162
55.040 5.563599
55.045 5.505148
55.050 5.619972
55.055 5.695057
55.060 5.851497
55.065 5.918895
55.070 5.948779
55.075 5.645447
55.080 5.637686
55.085 5.293789
55.090 4.819936
55.095 4.451221
55.100 4.332286
55.105 4.299907
55.110 4.551437
55.115 4.539858
55.120 4.681585
55.125 5.032311
55.130 5.693297
55.135 6.283357
55.140 6.180274
55.145 6.219414
55.150 6.318955
55.155 6.217458
55.160 6.256721
55.165 6.151039
55.170 6.101079
55.175 6.33796
55.180 6.400359
55.185 6.447324
55.190 6.615105
55.195 6.309251
55.200 6.149583
55.205 6.089252
55.210 5.829076
55.215 5.629954
55.220 6.031425
55.225 6.198388
55.230 6.677505
55.235 6.809367
55.240 6.845944
55.245 7.352962
55.250 7.648119
55.255 6.996467
55.260 6.158626
55.265 5.578484
55.270 5.251335
55.275 5.244286
55.280 5.076598
55.285 4.885502
55.290 5.121622
55.295 5.395942
55.300 5.874106
55.305 6.084315
55.310 5.964291
55.315 5.714107
55.320 5.500225
55.325 5.474097
55.330 5.75222
55.335 5.597438
55.340 5.310273
55.345 5.339788
55.350 5.379706
55.355 5.722397
55.360 5.955816
55.365 5.639537
55.370 5.75008
55.375 5.430902
55.380 5.218351
55.385 4.958066
55.390 4.69057
55.395 4.767722
55.400 4.662895
55.405 4.551277
55.410 5.018284
55.415 5.260426
55.420 5.253858
55.425 5.07998
55.430 5.09766
55.435 5.461572
55.440 5.44555
55.445 5.643315
55.450 5.928038
55.455 6.367117
55.460 6.65168
55.465 6.740687
55.470 6.81198
55.475 6.781329
55.480 6.458219
55.485 6.191223
55.490 6.127859
55.495 6.137599
55.500 5.642581
55.505 5.652397
55.510 5.931672
55.515 5.972403
55.520 6.032962
55.525 5.699136
55.530 5.822734
55.535 6.391048
55.540 6.300653
55.545 6.269746
55.550 6.4724
55.555 6.5718
55.560 6.578383
55.565 6.542884
55.570 6.287181
55.575 6.112215
55.580 5.873848
55.585 5.732921
55.590 6.003519
55.595 5.96283
55.600 5.806774
55.605 5.627981
55.610 5.700367
55.615 5.838179
55.620 5.969423
55.625 5.611582
55.630 5.680028
55.635 5.659038
55.640 5.69156
55.645 5.876436
55.650 6.018097
55.655 5.60324
55.660 5.536843
55.665 5.401315
55.670 5.309811
55.675 5.256479
55.680 4.874367
55.685 4.780496
55.690 5.297976
55.695 5.339575
55.700 5.465734
55.705 5.441423
55.710 5.361062
55.715 5.569582
55.720 5.373249
55.725 5.406147
55.730 5.388329
55.735 5.278109
55.740 5.434538
55.745 5.360877
55.750 5.330296
55.755 5.36562
55.760 5.583993
55.765 6.140702
55.770 6.225196
55.775 6.241693
55.780 6.516891
55.785 6.675513
55.790 6.854277
55.795 6.775938
55.800 6.490412
55.805 6.613707
55.810 6.510451
55.815 6.194165
55.820 5.714529
55.825 5.328747
55.830 5.008541
55.835 5.173724
55.840 5.42992
55.845 5.689062
55.850 6.071916
55.855 6.249615
55.860 6.491351
55.865 6.736131
55.870 6.661771
55.875 6.542845
55.880 6.335748
55.885 6.334225
55.890 6.571946
55.895 6.738075
55.900 6.425766
55.905 6.503764
55.910 6.533673
55.915 6.772501
55.920 6.380521
55.925 6.130179
55.930 5.783914
55.935 5.844641
55.940 6.000784
55.945 6.003389
55.950 6.132416
55.955 6.496234
55.960 6.626115
55.965 6.847111
55.970 7.105104
55.975 7.217017
55.980 7.321782
55.985 7.117835
55.990 6.90581
55.995 6.763788
56.000 6.825615
56.005 6.691172
56.010 6.177098
56.015 5.642067
56.020 5.607526
56.025 5.911351
56.030 6.228565
56.035 6.118417
56.040 5.772422
56.045 5.716702
56.050 5.969572
56.055 6.244697
56.060 6.246683
56.065 5.971616
56.070 5.965456
56.075 6.316076
56.080 6.909399
56.085 6.994752
56.090 6.777208
56.095 6.518616
56.100 6.498649
56.105 6.343155
56.110 6.211643
56.115 5.861266
56.120 5.509991
56.125 5.537854
56.130 5.669219
56.135 5.714896
56.140 5.953023
56.145 6.024144
56.150 6.243897
56.155 6.438158
56.160 6.365762
56.165 6.40531
56.170 6.308061
56.175 6.316887
56.180 6.486845
56.185 6.111912
56.190 5.936995
56.195 5.655562
56.200 5.361244
56.205 5.470456
56.210 5.399847
56.215 5.406721
56.220 5.758979
56.225 5.86767
56.230 6.067091
56.235 6.142919
56.240 5.879361
56.245 5.459163
56.250 5.188048
56.255 4.971247
56.260 5.159451
56.265 5.239282
56.270 5.202158
56.275 5.226619
56.280 5.415237
56.285 5.71838
56.290 5.714731
56.295 5.694263
56.300 5.806131
56.305 5.741778
56.310 5.789511
56.315 5.413363
56.320 5.235149
56.325 5.130391
56.330 5.21567
56.335 5.28693
56.340 5.47118
56.345 6.035076
56.350 6.349689
56.355 6.534787
56.360 6.707767
56.365 6.494166
56.370 6.41924
56.375 6.37314
56.380 6.030779
56.385 6.013266
56.390 5.949638
56.395 5.914738
56.400 5.944098
56.405 5.602206
56.410 5.540508
56.415 5.767178
56.420 5.859945
56.425 5.790868
56.430 5.857751
56.435 6.112307
56.440 6.439479
56.445 6.323919
56.450 6.16615
56.455 6.417315
56.460 6.378504
56.465 6.358407
56.470 6.082497
56.475 6.094971
56.480 6.034059
56.485 5.952378
56.490 6.138944
56.495 6.378004
56.500 6.414049
56.505 6.714337
56.510 7.063886
56.515 7.205205
56.520 7.192424
56.525 6.607603
56.530 6.192833
56.535 6.29847
56.540 6.239959
56.545 5.776088
56.550 5.89544
56.555 5.633912
56.560 5.594923
56.565 5.945538
56.570 5.929343
56.575 5.708826
56.580 6.163029
56.585 6.150847
56.590 6.330113
56.595 6.575559
56.600 6.81148
56.605 6.780283
56.610 6.672112
56.615 6.364734
56.620 6.746218
56.625 6.789299
56.630 6.869945
56.635 6.556809
56.640 6.443881
56.645 6.444348
56.650 6.325033
56.655 5.912112
56.660 5.871735
56.665 5.88758
56.670 6.023402
56.675 6.321712
56.680 6.529244
56.685 6.697693
56.690 6.862676
56.695 6.857825
56.700 6.817638
56.705 6.912025
56.710 7.353694
56.715 7.62094
56.720 7.519404
56.725 7.494018
56.730 7.510287
56.735 7.458087
56.740 7.160652
56.745 6.596633
56.750 6.224872
56.755 6.187244
56.760 6.138485
56.765 6.137679
56.770 5.931445
56.775 5.869118
56.780 6.291477
56.785 6.327401
56.790 6.372254
56.795 6.142337
56.800 6.026805
56.805 6.225061
56.810 6.008686
56.815 5.620734
56.820 5.584358
56.825 5.655622
56.830 6.01617
56.835 6.221952
56.840 6.205574
56.845 6.556006
56.850 6.890465
56.855 6.923928
56.860 7.112442
56.865 7.106581
56.870 7.054893
56.875 7.038207
56.880 6.890449
56.885 6.583948
56.890 6.738915
56.895 6.536613
56.900 6.55462
56.905 6.360825
56.910 6.199153
56.915 6.158293
56.920 6.250245
56.925 6.135544
56.930 6.2206
56.935 6.528763
56.940 6.928013
56.945 7.156414
56.950 7.369186
56.955 7.288629
56.960 7.432451
56.965 7.03635
56.970 6.651518
56.975 6.428559
56.980 6.551773
56.985 6.839162
56.990 7.08245
56.995 7.203388
57.000 7.335793
57.005 7.921948
57.010 8.193796
57.015 8.003192
57.020 7.690937
57.025 7.489412
57.030 7.486801
57.035 7.265062
57.040 6.657155
57.045 6.399373
57.050 6.72394
57.055 6.879789
57.060 6.895406
57.065 6.906195
57.070 7.14318
57.075 7.110387
57.080 7.023779
57.085 6.877382
57.090 6.668327
57.095 6.579484
57.100 6.50529
57.105 6.64223
57.110 6.809433
57.115 6.879661
57.120 6.631076
57.125 6.918294
57.130 7.188817
57.135 7.161611
57.140 7.113583
57.145 7.19515
57.150 7.296044
57.155 7.377639
57.160 7.211725
57.165 6.976058
57.170 6.924733
57.175 6.61347
57.180 6.172068
57.185 6.256925
57.190 6.39607
57.195 6.60034
57.200 6.492058
57.205 6.613263
57.210 6.51051
57.215 6.727262
57.220 6.69498
57.225 6.530354
57.230 6.12466
57.235 6.249518
57.240 6.161495
57.245 6.483323
57.250 6.301847
57.255 6.412537
57.260 6.53042
57.265 6.840783
57.270 7.073547
57.275 7.183348
57.280 7.254769
57.285 7.612027
57.290 7.665118
57.295 7.323102
57.300 6.988558
57.305 6.842959
57.310 6.899656
57.315 6.653117
57.320 6.585533
57.325 6.549171
57.330 6.677795
57.335 6.646693
57.340 6.505076
57.345 6.631191
57.350 6.68734
57.355 6.753039
57.360 7.186647
57.365 7.214243
57.370 7.5223
57.375 7.367167
57.380 7.061834
57.385 6.942117
57.390 6.566718
57.395 6.234744
57.400 6.633244
57.405 6.407145
57.410 6.652989
57.415 7.31811
57.420 7.617543
57.425 7.664584
57.430 7.640576
57.435 7.47029
57.440 7.455081
57.445 7.276525
57.450 6.525231
57.455 6.406907
57.460 6.192712
57.465 6.481539
57.470 6.675012
57.475 6.94594
57.480 7.293782
57.485 7.374979
57.490 7.615113
57.495 7.779668
57.500 7.198922
57.505 6.876329
57.510 6.747894
57.515 6.605119
57.520 6.238932
57.525 5.817694
57.530 5.795349
57.535 6.404959
57.540 6.693446
57.545 6.59935
57.550 6.487701
57.555 6.662165
57.560 7.211623
57.565 7.028841
57.570 6.432008
57.575 5.939873
57.580 5.647788
57.585 5.91306
57.590 5.744609
57.595 5.842535
57.600 6.044895
57.605 6.296371
57.610 6.834861
57.615 7.095893
57.620 7.037238
57.625 7.578239
57.630 7.600636
57.635 7.394214
57.640 7.071346
57.645 7.124005
57.650 7.190351
57.655 7.143189
57.660 6.629474
57.665 6.317567
57.670 6.379026
57.675 6.839951
57.680 6.694286
57.685 6.464349
57.690 6.47172
57.695 6.660787
57.700 6.580644
57.705 6.604736
57.710 6.122056
57.715 6.25469
57.720 6.40638
57.725 6.659449
57.730 6.525914
57.735 6.596988
57.740 6.606633
57.745 6.641069
57.750 6.804314
57.755 6.761847
57.760 6.37288
57.765 6.370592
57.770 6.836672
57.775 6.969747
57.780 6.961645
57.785 6.841491
57.790 6.572987
57.795 6.512513
57.800 6.470501
57.805 6.044404
57.810 5.857927
57.815 5.815848
57.820 5.836341
57.825 6.147127
57.830 6.245686
57.835 6.415749
57.840 6.403572
57.845 6.917799
57.850 7.117659
57.855 6.855194
57.860 6.842305
57.865 7.104255
57.870 7.253754
57.875 7.424817
57.880 7.230996
57.885 7.063555
57.890 7.302351
57.895 7.178243
57.900 6.811066
57.905 6.405225
57.910 6.109537
57.915 5.876509
57.920 5.945724
57.925 5.639916
57.930 5.930812
57.935 6.405763
57.940 7.028043
57.945 7.29081
57.950 7.203357
57.955 6.93974
57.960 7.059824
57.965 7.208416
57.970 6.864621
57.975 6.490512
57.980 6.668809
57.985 6.881381
57.990 7.009859
57.995 7.128918
58.000 7.129029
58.005 7.099075
58.010 7.051518
58.015 6.810108
58.020 6.918791
58.025 6.870755
58.030 6.822766
58.035 6.693801
58.040 6.962726
58.045 6.965213
58.050 6.828827
58.055 7.132669
58.060 7.462502
58.065 7.187661
58.070 7.165126
58.075 6.826214
58.080 6.881343
58.085 6.807344
58.090 6.61073
58.095 6.212278
58.100 6.299073
58.105 6.132072
58.110 6.05567
58.115 5.768452
58.120 5.742226
58.125 5.45288
58.130 5.659036
58.135 5.639114
58.140 5.712864
58.145 5.788312
58.150 5.795641
58.155 5.833703
58.160 5.76712
58.165 5.822509
58.170 6.054915
58.175 6.124289
58.180 6.125758
58.185 6.525343
58.190 6.708574
58.195 6.94299
58.200 6.604352
58.205 6.222643
58.210 6.27374
58.215 6.224602
58.220 5.964754
58.225 6.014104
58.230 6.031813
58.235 6.244186
58.240 6.242552
58.245 6.24665
58.250 6.218418
58.255 6.022294
58.260 5.865215
58.265 5.74158
58.270 5.949944
58.275 5.946616
58.280 5.930655
58.285 6.230611
58.290 6.17873
58.295 6.251329
58.300 6.284775
58.305 6.376124
58.310 6.394762
58.315 6.281418
58.320 5.917291
58.325 6.054414
58.330 5.742063
58.335 5.652689
58.340 5.384173
58.345 5.501716
58.350 5.509244
58.355 5.558456
58.360 5.556926
58.365 5.964177
58.370 5.941162
58.375 6.00319
58.380 6.16426
58.385 6.367014
58.390 6.473157
58.395 6.623664
58.400 6.501344
58.405 6.533969
58.410 6.481755
58.415 6.473245
58.420 6.244828
58.425 6.447282
58.430 6.653481
58.435 6.620831
58.440 6.483401
58.445 6.655695
58.450 6.899595
58.455 7.086007
58.460 6.998679
58.465 6.969083
58.470 7.175406
58.475 7.518339
58.480 7.55864
58.485 7.280415
58.490 7.370602
58.495 7.649744
58.500 7.797118
58.505 8.008086
58.510 7.84178
58.515 7.743027
58.520 7.869523
58.525 7.722041
58.530 7.251356
58.535 6.620418
58.540 6.344631
58.545 6.491257
58.550 6.488076
58.555 6.241844
58.560 6.680594
58.565 7.088126
58.570 7.322337
58.575 7.46642
58.580 7.089262
58.585 6.859467
58.590 6.650796
58.595 6.290812
58.600 6.412545
58.605 6.524766
58.610 6.288013
58.615 6.098184
58.620 6.037209
58.625 6.234778
58.630 6.345586
58.635 6.006883
58.640 6.011619
58.645 6.188178
58.650 6.528761
58.655 6.826549
58.660 6.869807
58.665 6.972413
58.670 7.022112
58.675 7.001549
58.680 7.08023
58.685 7.069626
58.690 7.032124
58.695 6.886869
58.700 6.385072
58.705 6.026096
58.710 5.999134
58.715 5.950918
58.720 6.230904
58.725 6.172822
58.730 6.251396
58.735 6.454392
58.740 6.964303
58.745 7.134249
58.750 7.172067
58.755 7.047453
58.760 7.109066
58.765 7.150336
58.770 7.005017
58.775 6.704645
58.780 6.677137
58.785 6.285579
58.790 6.06228
58.795 6.529216
58.800 6.548712
58.805 6.732167
58.810 7.314462
58.815 7.33607
58.820 7.764439
58.825 8.039928
58.830 7.765824
58.835 8.033932
58.840 7.73254
58.845 7.404866
58.850 7.089949
58.855 6.992908
58.860 6.593047
58.865 6.355202
58.870 6.330382
58.875 6.432716
58.880 6.30526
58.885 6.672075
58.890 6.433063
58.895 6.435006
58.900 6.59265
58.905 6.304318
58.910 6.344178
58.915 6.51942
58.920 6.111172
58.925 6.232326
58.930 6.404471
58.935 6.681722
58.940 7.38735
58.945 7.306046
58.950 6.860241
58.955 6.854296
58.960 6.735061
58.965 6.44015
58.970 6.091068
58.975 5.889258
58.980 6.106899
58.985 6.467299
58.990 6.429597
58.995 6.478415
59.000 6.554976
59.005 6.650477
59.010 6.650694
59.015 6.660159
59.020 6.800526
59.025 7.051293
59.030 7.233997
59.035 7.164337
59.040 6.986918
59.045 6.973977
59.050 6.678762
59.055 6.575667
59.060 6.395036
59.065 6.598885
59.070 6.759157
59.075 6.684561
59.080 6.998743
59.085 6.810425
59.090 6.826874
59.095 7.195342
59.100 7.377521
59.105 7.81582
59.110 7.760954
59.115 7.409574
59.120 7.806993
59.125 7.901699
59.130 7.899915
59.135 7.488947
59.140 7.30125
59.145 7.055869
59.150 7.038691
59.155 7.193124
59.160 7.12618
59.165 7.049581
59.170 6.900446
59.175 7.19652
59.180 7.554521
59.185 7.491494
59.190 7.33689
59.195 7.154408
59.200 6.992422
59.205 6.871036
59.210 6.58203
59.215 6.541279
59.220 6.426296
59.225 6.13974
59.230 6.365629
59.235 6.656199
59.240 6.777704
59.245 6.579571
59.250 6.323718
59.255 6.455677
59.260 6.540041
59.265 6.143259
59.270 5.84405
59.275 5.887324
59.280 5.970603
59.285 6.220421
59.290 6.512361
59.295 6.822038
59.300 6.900548
59.305 6.813013
59.310 7.005295
59.315 6.89085
59.320 6.516341
59.325 6.51165
59.330 6.466052
59.335 6.557851
59.340 6.422514
59.345 6.069651
59.350 6.196105
59.355 6.352161
59.360 5.927219
59.365 5.630029
59.370 5.78401
59.375 5.870851
59.380 5.929004
59.385 5.848859
59.390 6.1527
59.395 6.491319
59.400 6.842749
59.405 6.941059
59.410 6.861533
59.415 6.946273
59.420 7.17028
59.425 7.064519
59.430 7.139142
59.435 6.722291
59.440 6.417216
59.445 6.510573
59.450 6.597794
59.455 6.411682
59.460 6.056655
59.465 6.03548
59.470 5.940735
59.475 6.177678
59.480 6.577881
59.485 6.55454
59.490 6.951319
59.495 6.981436
59.500 7.086888
59.505 7.486679
59.510 7.531992
59.515 7.120736
59.520 7.083397
59.525 7.06374
59.530 7.10797
59.535 6.776693
59.540 6.787873
59.545 6.915369
59.550 7.397242
59.555 7.340014
59.560 7.548361
59.565 7.749274
59.570 7.870839
59.575 7.529508
59.580 7.214266
59.585 7.078628
59.590 6.944793
59.595 6.509219
59.600 6.042437
59.605 6.048246
59.610 6.647563
59.615 7.215907
59.620 7.46639
59.625 7.653069
59.630 7.344095
59.635 7.550059
59.640 7.56841
59.645 7.271985
59.650 6.416769
59.655 6.032712
59.660 6.11972
59.665 6.694869
59.670 6.883377
59.675 6.637435
59.680 6.869687
59.685 7.095968
59.690 7.296532
59.695 7.244452
59.700 7.572268
59.705 7.70722
59.710 8.070229
59.715 8.170701
59.720 8.387525
59.725 8.294855
59.730 8.098506
59.735 7.719268
59.740 7.377675
59.745 7.135628
59.750 7.066997
59.755 6.866205
59.760 7.02713
59.765 7.169957
59.770 7.110975
59.775 7.41928
59.780 7.309683
59.785 7.211144
59.790 7.520823
59.795 7.566074
59.800 7.974047
59.805 7.887715
59.810 7.86414
59.815 8.246268
59.820 8.06415
59.825 7.898157
59.830 7.581868
59.835 7.443236
59.840 7.763273
59.845 7.667259
59.850 7.080157
59.855 7.007373
59.860 7.041825
59.865 7.130059
59.870 6.9391
59.875 7.099582
59.880 7.307777
59.885 7.564672
59.890 7.811963
59.895 7.671154
59.900 7.886614
59.905 8.178988
59.910 7.969849
59.915 7.994865
59.920 8.009213
59.925 7.923932
59.930 7.762693
59.935 7.478408
59.940 6.940938
59.945 7.027426
59.950 6.653881
59.955 6.595533
59.960 6.679856
59.965 6.903292
59.970 6.802204
59.975 6.870137
59.980 6.691382
59.985 7.064468
59.990 7.191038
59.995 7.114344
60.000 7.155975
60.005 7.072884
60.010 6.865016
60.015 6.681864
60.020 6.486871
60.025 6.505452
60.030 6.205587
60.035 6.046347
60.040 6.272988
60.045 7.002944
60.050 7.39186
60.055 7.370216
60.060 7.009479
60.065 7.240165
60.070 7.217373
60.075 7.217483
60.080 6.390353
60.085 6.19229
60.090 6.267266
60.095 6.533221
60.100 6.553128
60.105 6.700053
60.110 6.59487
60.115 6.757339
60.120 7.013309
60.125 7.333301
60.130 7.492635
60.135 7.612912
60.140 7.52473
60.145 7.522622
60.150 7.530352
60.155 7.303807
60.160 7.209797
60.165 7.117043
60.170 7.338045
60.175 7.712273
60.180 7.957777
60.185 7.839031
60.190 7.484306
60.195 6.979613
60.200 6.8537
60.205 6.631837
60.210 6.220993
60.215 6.104077
60.220 6.413988
60.225 6.770873
60.230 6.843575
60.235 6.807246
60.240 6.484681
60.245 6.565819
60.250 6.533141
60.255 6.456117
60.260 6.103044
60.265 6.01893
60.270 5.724961
60.275 5.832676
60.280 5.737925
60.285 5.617232
60.290 5.546308
60.295 6.059709
60.300 6.209806
60.305 6.400226
60.310 6.328285
60.315 6.492815
60.320 6.797226
60.325 7.129405
60.330 7.007417
60.335 7.190005
60.340 7.392206
60.345 7.323332
60.350 7.401305
60.355 7.327076
60.360 6.76961
60.365 6.783064
60.370 6.775214
60.375 6.583569
60.380 6.933792
60.385 7.00326
60.390 7.168506
60.395 7.548455
60.400 7.676101
60.405 7.352248
60.410 7.02154
60.415 6.483937
60.420 6.433237
60.425 6.304126
60.430 5.70425
60.435 5.710883
60.440 6.094774
60.445 6.325872
60.450 6.207941
60.455 6.059135
60.460 6.153655
60.465 6.861799
60.470 7.099222
60.475 7.043725
60.480 7.265867
60.485 7.466231
60.490 7.547516
60.495 7.468986
60.500 7.310163
60.505 7.150595
60.510 7.003171
60.515 6.501958
60.520 6.479756
60.525 6.601825
60.530 6.797784
60.535 6.646364
60.540 6.437853
60.545 6.8013
60.550 7.345759
60.555 7.139072
60.560 6.904562
60.565 6.887859
60.570 6.975458
60.575 7.242953
60.580 7.383036
60.585 7.267098
60.590 7.426512
60.595 7.421162
60.600 7.151391
60.605 7.173478
60.610 7.174202
60.615 7.000629
60.620 7.522245
60.625 7.783473
60.630 8.023665
60.635 8.038037
60.640 7.657667
60.645 7.416451
60.650 7.383311
60.655 7.032685
60.660 6.947989
60.665 6.819913
60.670 6.715204
60.675 7.340624
60.680 7.463522
60.685 7.288933
60.690 7.209075
60.695 6.97269
60.700 6.796964
60.705 7.153886
60.710 6.377261
60.715 6.218825
60.720 6.408469
60.725 6.154287
60.730 6.296788
60.735 6.615175
60.740 6.940948
60.745 7.443266
60.750 7.561392
60.755 7.563875
60.760 7.706255
60.765 7.918499
60.770 7.796878
60.775 7.316421
60.780 7.185047
60.785 6.966856
60.790 7.152011
60.795 7.319964
60.800 6.72935
60.805 6.619522
60.810 6.599956
60.815 6.613946
60.820 6.527259
60.825 6.034736
60.830 6.142034
60.835 6.715905
60.840 7.058319
60.845 6.936831
60.850 6.917686
60.855 7.181228
60.860 7.501691
60.865 7.549918
60.870 7.460869
60.875 7.423688
60.880 7.698532
60.885 7.609381
60.890 7.559951
60.895 7.385306
60.900 7.151084
60.905 6.745912
60.910 6.582889
60.915 6.486537
60.920 6.480728
60.925 6.126837
60.930 6.210744
60.935 5.955009
60.940 6.1189
60.945 5.954327
60.950 5.777004
60.955 5.827946
60.960 6.274007
60.965 6.548762
60.970 6.749901
60.975 6.76129
60.980 7.034927
60.985 7.347651
60.990 7.298798
60.995 6.930704
61.000 6.746332
61.005 6.669157
61.010 6.598094
61.015 6.274928
61.020 6.173917
61.025 6.307587
61.030 6.296179
61.035 6.045352
61.040 6.251014
61.045 6.362852
61.050 6.724005
61.055 6.208696
61.060 6.514447
61.065 6.844354
61.070 6.766591
61.075 6.461359
61.080 6.468627
61.085 6.544771
61.090 7.091365
61.095 6.753248
61.100 6.863219
61.105 7.413939
61.110 7.768949
61.115 7.571245
61.120 7.438353
61.125 7.047809
61.130 6.846137
61.135 6.379103
61.140 5.739695
61.145 5.639894
61.150 5.71187
61.155 5.796565
61.160 6.335667
61.165 6.865251
61.170 6.96182
61.175 7.315565
61.180 7.224815
61.185 7.074363
61.190 6.757553
61.195 6.613329
61.200 6.559504
61.205 6.842006
61.210 7.005865
61.215 6.960504
61.220 7.075522
61.225 7.262699
61.230 7.474981
61.235 7.544392
61.240 7.412277
61.245 7.425287
61.250 7.742123
61.255 7.882336
61.260 8.056996
61.265 7.82385
61.270 7.600522
61.275 7.455863
61.280 7.477815
61.285 7.307171
61.290 7.423947
61.295 7.434175
61.300 7.499742
61.305 7.622261
61.310 7.624713
61.315 7.446389
61.320 7.519541
61.325 7.052508
61.330 6.776051
61.335 6.610331
61.340 6.391024
61.345 6.255414
61.350 6.436424
61.355 6.774573
61.360 6.816743
61.365 7.135806
61.370 7.451374
61.375 7.693304
61.380 7.94513
61.385 7.669313
61.390 7.70462
61.395 8.217143
61.400 8.00533
61.405 7.716353
61.410 7.977099
61.415 8.032516
61.420 7.812557
61.425 7.602204
61.430 7.487163
61.435 7.326007
61.440 7.408255
61.445 7.216805
61.450 7.107159
61.455 7.364353
61.460 7.406385
61.465 7.319786
61.470 7.166361
61.475 6.905359
61.480 6.796744
61.485 6.994187
61.490 7.001667
61.495 7.094112
61.500 7.213827
61.505 7.239759
61.510 7.134885
61.515 7.231667
61.520 7.021504
61.525 7.134293
61.530 6.957572
61.535 7.033234
61.540 6.84079
61.545 6.846509
61.550 6.584915
61.555 6.449615
61.560 6.30143
61.565 5.999068
61.570 5.938069
61.575 6.389866
61.580 6.961133
61.585 7.285269
61.590 7.595977
61.595 7.51563
61.600 7.769705
61.605 7.681055
61.610 7.763464
61.615 7.340453
61.620 7.045101
61.625 7.089314
61.630 6.989459
61.635 6.927362
61.640 6.729954
61.645 6.545265
61.650 6.512853
61.655 6.668246
61.660 6.477662
61.665 6.80109
61.670 6.966212
61.675 7.166245
61.680 7.377805
61.685 7.533212
61.690 7.468772
61.695 7.453668
61.700 6.990703
61.705 7.052662
61.710 7.181459
61.715 7.173071
61.720 6.82135
61.725 6.538334
61.730 6.479227
61.735 6.711294
61.740 6.319917
61.745 6.121665
61.750 5.607892
61.755 5.574257
61.760 5.929901
61.765 6.016769
61.770 5.705146
61.775 5.80113
61.780 5.663
61.785 6.214048
61.790 6.35623
61.795 6.25396
61.800 6.497826
61.805 7.052171
61.810 7.17603
61.815 7.314729
61.820 7.146223
61.825 7.225781
61.830 7.403075
61.835 7.254318
61.840 7.060565
61.845 7.09925
61.850 7.114903
61.855 6.999763
61.860 6.729995
61.865 6.715938
61.870 6.766811
61.875 6.794898
61.880 6.622983
61.885 6.856792
61.890 6.981005
61.895 7.31504
61.900 7.327786
61.905 7.303571
61.910 7.355883
61.915 7.337135
61.920 7.332964
61.925 7.715818
61.930 7.810699
61.935 7.85227
61.940 7.629384
61.945 7.799539
61.950 7.79306
61.955 7.479604
61.960 7.212616
61.965 6.80895
61.970 6.684299
61.975 6.79777
61.980 6.773536
61.985 6.900675
61.990 7.124572
61.995 7.040574
62.000 7.114253
62.005 7.239113
62.010 7.411678
62.015 7.41619
62.020 7.418288
62.025 7.473699
62.030 7.802994
62.035 8.081342
62.040 7.718704
62.045 7.63559
62.050 7.515619
62.055 7.107928
62.060 6.75784
62.065 6.646482
62.070 6.597995
62.075 7.084217
62.080 7.066428
62.085 7.424907
62.090 8.01151
62.095 8.827466
62.100 8.603357
62.105 8.303265
62.110 8.095196
62.115 8.066225
62.120 8.043784
62.125 7.983657
62.130 7.562135
62.135 8.06307
62.140 8.531284
62.145 8.376421
62.150 8.274051
62.155 7.930775
62.160 7.740847
62.165 7.566918
62.170 7.301622
62.175 7.042053
62.180 6.898669
62.185 7.389956
62.190 7.676234
62.195 7.801716
62.200 7.822641
62.205 7.347655
62.210 7.492208
62.215 7.851858
62.220 7.485186
62.225 7.589705
62.230 7.617306
62.235 7.791424
62.240 8.481255
62.245 8.676417
62.250 8.321641
62.255 7.986613
62.260 7.778482
62.265 7.501905
62.270 7.274645
62.275 7.000253
62.280 7.023552
62.285 7.21004
62.290 7.620307
62.295 7.423115
62.300 7.506276
62.305 7.61984
62.310 7.482581
62.315 6.735852
62.320 6.334079
62.325 6.091925
62.330 6.264043
62.335 6.487809
62.340 6.525893
62.345 6.350949
62.350 6.599638
62.355 6.804509
62.360 6.59983
62.365 6.324677
62.370 6.152165
62.375 6.235335
62.380 6.722739
62.385 6.790407
62.390 6.759921
62.395 7.015227
62.400 6.984858
62.405 6.857631
62.410 6.557736
62.415 6.444486
62.420 6.676722
62.425 7.116182
62.430 7.490521
62.435 7.621698
62.440 7.889794
62.445 8.345057
62.450 8.142426
62.455 8.113723
62.460 7.776147
62.465 7.556708
62.470 7.884524
62.475 7.855422
62.480 7.805196
62.485 7.769401
62.490 7.460827
62.495 7.564424
62.500 7.67426
62.505 7.405627
62.510 7.488873
62.515 7.552309
62.520 7.850195
62.525 8.085634
62.530 8.063242
62.535 8.211875
62.540 8.142198
62.545 7.991556
62.550 7.72648
62.555 7.479975
62.560 7.509157
62.565 7.717086
62.570 7.592111
62.575 7.703504
62.580 7.957186
62.585 8.048498
62.590 8.139767
62.595 8.510125
62.600 8.272547
62.605 8.25497
62.610 8.235504
62.615 7.917915
62.620 7.731759
62.625 7.449878
62.630 6.982862
62.635 7.180112
62.640 7.353316
62.645 7.436397
62.650 7.599727
62.655 7.904927
62.660 8.396951
62.665 8.489371
62.670 8.225732
62.675 8.001761
62.680 7.607367
62.685 7.225959
62.690 7.615811
62.695 7.595833
62.700 7.48026
62.705 8.003639
62.710 8.321075
62.715 8.71819
62.720 9.187564
62.725 8.697048
62.730 8.388854
62.735 8.337739
62.740 7.820701
62.745 7.9545
62.750 8.083249
62.755 8.030628
62.760 8.298007
62.765 8.974613
62.770 9.524223
62.775 9.596407
62.780 9.192726
62.785 8.808706
62.790 8.777666
62.795 8.248342
62.800 7.895894
62.805 7.424813
62.810 7.32992
62.815 7.660041
62.820 8.091313
62.825 8.171326
62.830 8.562321
62.835 8.74034
62.840 9.081148
62.845 9.46318
62.850 9.164841
62.855 8.83486
62.860 8.959497
62.865 9.22337
62.870 9.306582
62.875 9.042032
62.880 8.534852
62.885 8.030777
62.890 8.107538
62.895 8.087946
62.900 7.764585
62.905 7.491874
62.910 7.224154
62.915 7.37252
62.920 8.071848
62.925 8.192986
62.930 7.833277
62.935 7.960444
62.940 7.821524
62.945 7.640666
62.950 7.371985
62.955 7.040003
62.960 6.766779
62.965 6.642787
62.970 5.88054
62.975 5.742619
62.980 6.183342
62.985 5.982148
62.990 6.051066
62.995 6.291557
63.000 6.598174
63.005 7.058157
63.010 6.874298
63.015 6.855756
63.020 7.10288
63.025 6.976882
63.030 6.643288
63.035 6.677324
63.040 6.604854
63.045 6.954614
63.050 7.207235
63.055 7.639872
63.060 8.102898
63.065 8.206292
63.070 8.118672
63.075 8.179609
63.080 8.069896
63.085 7.49197
63.090 7.033137
63.095 6.882036
63.100 6.805267
63.105 6.786486
63.110 6.499136
63.115 6.66373
63.120 6.876368
63.125 6.971039
63.130 6.800403
63.135 6.931759
63.140 7.086701
63.145 7.325831
63.150 7.204604
63.155 7.723346
63.160 7.806578
63.165 8.174892
63.170 8.097446
63.175 8.11502
63.180 8.394628
63.185 8.677257
63.190 8.399224
63.195 8.422326
63.200 7.845311
63.205 8.07106
63.210 8.119494
63.215 7.823867
63.220 7.343344
63.225 7.293955
63.230 7.095326
63.235 6.944065
63.240 6.546078
63.245 6.303445
63.250 6.541108
63.255 6.693984
63.260 6.856792
63.265 7.161173
63.270 7.549874
63.275 7.825528
63.280 8.255917
63.285 8.47634
63.290 8.594273
63.295 8.206811
63.300 8.093547
63.305 7.797256
63.310 7.601881
63.315 7.397789
63.320 7.276377
63.325 6.98041
63.330 7.02235
63.335 6.881563
63.340 6.994186
63.345 6.972618
63.350 7.008473
63.355 6.955146
63.360 7.249597
63.365 7.317338
63.370 7.272374
63.375 7.515116
63.380 7.635943
63.385 7.68585
63.390 7.558284
63.395 7.42566
63.400 7.457162
63.405 7.576496
63.410 7.165929
63.415 7.239358
63.420 7.180739
63.425 7.389843
63.430 7.67787
63.435 7.56195
63.440 7.482807
63.445 7.55283
63.450 7.39451
63.455 7.727443
63.460 7.425993
63.465 7.309648
63.470 7.408912
63.475 7.469399
63.480 7.517501
63.485 7.548459
63.490 6.957628
63.495 7.020785
63.500 6.895944
63.505 7.260204
63.510 7.445883
63.515 7.474314
63.520 7.228464
63.525 7.399487
63.530 7.449001
63.535 7.352116
63.540 7.282577
63.545 7.421123
63.550 7.741464
63.555 7.966046
63.560 7.818951
63.565 8.087049
63.570 8.008051
63.575 7.390622
63.580 7.1774
63.585 6.911835
63.590 7.351728
63.595 7.741513
63.600 7.779523
63.605 8.025285
63.610 8.184975
63.615 8.12855
63.620 7.942092
63.625 7.408492
63.630 7.164634
63.635 6.842972
63.640 6.991683
63.645 7.447339
63.650 7.356599
63.655 7.264431
63.660 7.182514
63.665 6.778334
63.670 7.115014
63.675 7.211376
63.680 7.281723
63.685 7.440709
63.690 7.404862
63.695 7.963512
63.700 8.230552
63.705 7.998514
63.710 7.83726
63.715 7.724106
63.720 7.904334
63.725 8.204309
63.730 7.925519
63.735 8.017777
63.740 7.875162
63.745 7.68183
63.750 7.731404
63.755 7.548938
63.760 7.526587
63.765 7.464385
63.770 7.258578
63.775 7.424232
63.780 7.575953
63.785 7.43274
63.790 7.401066
63.795 7.260036
63.800 7.330459
63.805 7.5128
63.810 7.47277
63.815 7.588951
63.820 7.44398
63.825 7.171441
63.830 7.061979
63.835 6.682384
63.840 6.470064
63.845 6.185949
63.850 5.813808
63.855 5.746003
63.860 5.978037
63.865 6.170381
63.870 6.419861
63.875 6.87521
63.880 7.310809
63.885 7.492779
63.890 7.816045
63.895 7.807089
63.900 8.047626
63.905 8.429611
63.910 8.452528
63.915 8.534731
63.920 8.797116
63.925 8.527441
63.930 8.428772
63.935 8.186188
63.940 7.634656
63.945 7.19181
63.950 6.623889
63.955 6.476307
63.960 6.977017
63.965 7.094798
63.970 6.975257
63.975 7.271847
63.980 7.565152
63.985 8.018579
63.990 7.977648
63.995 7.478118
64.000 7.523449
64.005 7.341085
64.010 7.398921
64.015 7.278455
64.020 6.992329
64.025 6.90272
64.030 7.134295
64.035 7.150665
64.040 7.539259
64.045 7.524457
64.050 7.853232
64.055 8.023611
64.060 7.819292
64.065 7.340323
64.070 7.506237
64.075 7.583477
64.080 7.708672
64.085 7.378412
64.090 7.431018
64.095 7.741279
64.100 7.866551
64.105 7.672494
64.110 7.343244
64.115 6.871212
64.120 6.712205
64.125 6.560172
64.130 6.606899
64.135 6.601775
64.140 6.757242
64.145 6.798522
64.150 7.10681
64.155 7.117234
64.160 6.833057
64.165 6.36057
64.170 6.310881
64.175 6.20395
64.180 5.833076
64.185 5.740407
64.190 5.979646
64.195 6.045801
64.200 6.392223
64.205 6.754082
64.210 6.57564
64.215 6.887572
64.220 6.804002
64.225 6.559208
64.230 6.721532
64.235 6.854496
64.240 6.655362
64.245 6.496257
64.250 6.445508
64.255 6.770028
64.260 6.975979
64.265 6.912938
64.270 6.848755
64.275 6.605754
64.280 6.538679
64.285 6.711833
64.290 6.856281
64.295 7.355086
64.300 7.756649
64.305 7.706124
64.310 8.29736
64.315 8.484514
64.320 8.631643
64.325 8.598079
64.330 8.025343
64.335 7.856422
64.340 8.224014
64.345 8.151952
64.350 8.085494
64.355 8.037749
64.360 8.05165
64.365 8.510464
64.370 8.280546
64.375 7.664492
64.380 7.473805
64.385 7.426076
64.390 7.130758
64.395 7.007469
64.400 7.004793
64.405 7.41969
64.410 7.916327
64.415 8.284194
64.420 8.514632
64.425 8.484765
64.430 8.652303
64.435 8.638599
64.440 8.741099
64.445 8.650002
64.450 8.424325
64.455 8.354949
64.460 8.145842
64.465 8.142592
64.470 7.72053
64.475 7.334702
64.480 7.222587
64.485 7.632626
64.490 7.674277
64.495 7.891742
64.500 7.397585
64.505 7.425655
64.510 7.618056
64.515 7.364285
64.520 6.889355
64.525 6.991725
64.530 7.112424
64.535 7.54597
64.540 7.781029
64.545 7.643442
64.550 7.791993
64.555 7.962616
64.560 8.00158
64.565 7.944475
64.570 7.860457
64.575 7.772667
64.580 7.997597
64.585 7.806447
64.590 7.544327
64.595 7.568821
64.600 7.849698
64.605 8.14758
64.610 8.292402
64.615 8.215515
64.620 8.504133
64.625 8.597772
64.630 8.397323
64.635 8.195498
64.640 8.149517
64.645 7.976102
64.650 7.831112
64.655 7.807268
64.660 8.028798
64.665 8.293376
64.670 8.285238
64.675 8.33651
64.680 8.6071
64.685 8.45369
64.690 8.781362
64.695 8.865923
64.700 8.831104
64.705 8.303436
64.710 8.272779
64.715 8.207203
64.720 8.753266
64.725 8.572846
64.730 8.717625
64.735 8.978212
64.740 9.508733
64.745 9.759983
64.750 10.038369
64.755 10.480603
64.760 10.601465
64.765 10.974227
64.770 11.09949
64.775 11.058727
64.780 10.591809
64.785 10.046878
64.790 9.823616
64.795 9.857767
64.800 9.547344
64.805 9.095571
64.810 9.185633
64.815 9.497791
64.820 10.071564
64.825 9.888492
64.830 9.83569
64.835 9.69048
64.840 10.111792
64.845 10.032195
64.850 10.309366
64.855 10.513928
64.860 10.503832
64.865 10.664085
64.870 11.397903
64.875 11.964607
64.880 12.556634
64.885 12.703323
64.890 12.329851
64.895 12.875958
64.900 12.489886
64.905 11.574956
64.910 10.747099
64.915 10.356682
64.920 10.646461
64.925 11.031819
64.930 10.515519
64.935 10.620715
64.940 10.767054
64.945 10.77607
64.950 10.870644
64.955 10.47233
64.960 10.046339
64.965 10.469104
64.970 11.155994
64.975 11.752967
64.980 12.022365
64.985 12.093524
64.990 12.762839
64.995 13.102185
65.000 12.956895
65.005 12.677329
65.010 12.455035
65.015 12.191175
65.020 12.460666
65.025 11.654003
65.030 11.65636
65.035 11.44014
65.040 11.325023
65.045 11.399255
65.050 11.496129
65.055 11.023071
65.060 11.752151
65.065 11.708811
65.070 12.166983
65.075 12.119538
65.080 12.100708
65.085 12.1946
65.090 11.834111
65.095 11.392557
65.100 11.19184
65.105 11.103956
65.110 10.878741
65.115 11.051451
65.120 10.998135
65.125 11.071254
65.130 11.356417
65.135 11.141396
65.140 11.130514
65.145 11.142893
65.150 10.715905
65.155 10.59767
65.160 10.462674
65.165 10.104955
65.170 10.609177
65.175 10.45621
65.180 10.241793
65.185 10.230736
65.190 10.145225
65.195 10.017684
65.200 9.866976
65.205 9.636767
65.210 9.499376
65.215 9.274725
65.220 9.383386
65.225 9.373367
65.230 9.340858
65.235 9.242802
65.240 9.097525
65.245 9.031253
65.250 9.539485
65.255 9.58522
65.260 10.098407
65.265 9.803401
65.270 9.621737
65.275 9.525333
65.280 9.393762
65.285 9.123486
65.290 8.961979
65.295 9.005961
65.300 9.509571
65.305 9.698746
65.310 10.023061
65.315 9.955615
65.320 9.909407
65.325 9.810522
65.330 9.232297
65.335 8.884439
65.340 8.56747
65.345 8.064866
65.350 8.269139
65.355 8.185281
65.360 8.254329
65.365 8.171928
65.370 8.256063
65.375 8.36657
65.380 8.199587
65.385 7.977257
65.390 8.265679
65.395 8.060905
65.400 8.246271
65.405 8.180167
65.410 7.906417
65.415 8.302239
65.420 8.232045
65.425 7.732034
65.430 7.561716
65.435 7.529935
65.440 7.732756
65.445 8.280962
65.450 8.023417
65.455 7.981924
65.460 8.109828
65.465 8.08639
65.470 7.682906
65.475 7.272312
65.480 7.090333
65.485 6.846426
65.490 7.173365
65.495 7.140191
65.500 7.365607
65.505 7.861989
65.510 8.1447
65.515 7.7997
65.520 8.089918
65.525 8.002467
65.530 8.153637
65.535 7.945253
65.540 7.537648
65.545 7.362393
65.550 7.701772
65.555 7.892724
65.560 8.262202
65.565 8.478697
65.570 8.455283
65.575 8.590508
65.580 8.581318
65.585 8.277926
65.590 7.581318
65.595 6.89148
65.600 6.646082
65.605 6.938816
65.610 7.001297
65.615 7.252465
65.620 7.517479
65.625 7.649572
65.630 7.832187
65.635 7.949385
65.640 7.837531
65.645 7.9637
65.650 7.75422
65.655 8.047763
65.660 8.393038
65.665 8.400537
65.670 8.108862
65.675 7.943018
65.680 8.318888
65.685 8.349901
65.690 8.067412
65.695 7.770558
65.700 7.918462
65.705 8.10371
65.710 8.111072
65.715 7.784664
65.720 8.082218
65.725 8.170025
65.730 8.321756
65.735 8.443148
65.740 8.116921
65.745 7.799346
65.750 7.379487
65.755 7.051149
65.760 7.185253
65.765 7.327016
65.770 6.968383
65.775 7.173368
65.780 7.108466
65.785 6.723948
65.790 6.375677
65.795 6.097887
65.800 6.11153
65.805 6.664029
65.810 6.845572
65.815 7.136208
65.820 7.524598
65.825 8.077662
65.830 8.250272
65.835 8.162496
65.840 8.102202
65.845 8.155994
65.850 7.850943
65.855 7.669321
65.860 7.187682
65.865 6.95813
65.870 6.787656
65.875 6.427346
65.880 6.299804
65.885 6.298124
65.890 6.218719
65.895 6.33604
65.900 6.601521
65.905 6.814196
65.910 6.823606
65.915 6.980995
65.920 7.054152
65.925 7.366936
65.930 7.75335
65.935 7.850574
65.940 7.511706
65.945 7.68488
65.950 7.848441
65.955 8.064351
65.960 8.324668
65.965 8.054048
65.970 8.453218
65.975 8.408574
65.980 8.453493
65.985 8.438676
65.990 8.285428
65.995 8.490148
66.000 8.234836
66.005 7.87237
66.010 8.109608
66.015 7.948782
66.020 8.13316
66.025 7.930594
66.030 7.68341
66.035 7.794359
66.040 7.570563
66.045 7.652205
66.050 7.777381
66.055 7.658648
66.060 8.037633
66.065 7.609322
66.070 7.859426
66.075 8.236865
66.080 8.050641
66.085 7.701913
66.090 7.732321
66.095 7.574195
66.100 7.683109
66.105 7.394318
66.110 7.145861
66.115 7.408392
66.120 7.842893
66.125 7.870342
66.130 8.017835
66.135 8.055648
66.140 7.790418
66.145 7.617555
66.150 7.152712
66.155 6.785615
66.160 6.719567
66.165 6.935153
66.170 7.210904
66.175 7.522357
66.180 7.7493
66.185 8.074466
66.190 8.437177
66.195 8.872451
66.200 8.650829
66.205 8.721147
66.210 8.775982
66.215 8.941189
66.220 9.306725
66.225 9.284449
66.230 8.825679
66.235 8.79146
66.240 8.551939
66.245 8.572742
66.250 8.473183
66.255 8.28813
66.260 8.10119
66.265 8.325125
66.270 7.953128
66.275 7.872629
66.280 7.808093
66.285 7.876507
66.290 7.362637
66.295 6.920451
66.300 6.694783
66.305 6.877058
66.310 6.61209
66.315 6.331885
66.320 6.363946
66.325 6.747493
66.330 7.021905
66.335 7.231331
66.340 7.82409
66.345 8.316879
66.350 8.582269
66.355 8.301169
66.360 8.169261
66.365 7.993101
66.370 7.821579
66.375 7.537502
66.380 7.38406
66.385 7.360027
66.390 7.090408
66.395 7.195593
66.400 7.349648
66.405 7.042406
66.410 6.771111
66.415 6.746516
66.420 6.872034
66.425 7.009263
66.430 7.011287
66.435 7.312759
66.440 7.680062
66.445 7.635313
66.450 7.529188
66.455 7.667228
66.460 7.690934
66.465 7.540078
66.470 7.398733
66.475 7.040239
66.480 6.782309
66.485 6.775471
66.490 6.598734
66.495 6.778283
66.500 6.733066
66.505 6.718767
66.510 7.360592
66.515 7.825063
66.520 7.740834
66.525 7.646185
66.530 7.480212
66.535 7.414917
66.540 7.348428
66.545 6.969557
66.550 6.4787
66.555 6.875209
66.560 7.101764
66.565 7.114181
66.570 7.243506
66.575 7.297602
66.580 7.516224
66.585 7.794829
66.590 7.59575
66.595 7.367779
66.600 7.582178
66.605 7.655382
66.610 7.988868
66.615 7.83125
66.620 7.811662
66.625 7.548445
66.630 7.356477
66.635 6.88903
66.640 6.490951
66.645 5.674116
66.650 5.502133
66.655 5.802692
66.660 6.312586
66.665 6.471488
66.670 6.749549
66.675 7.214197
66.680 7.789765
66.685 8.067294
66.690 7.621002
66.695 7.254574
66.700 7.376403
66.705 7.325376
66.710 7.156333
66.715 7.220271
66.720 7.495044
66.725 7.86145
66.730 7.806214
66.735 7.687551
66.740 7.696964
66.745 7.802861
66.750 7.522977
66.755 7.149528
66.760 6.79776
66.765 6.971615
66.770 7.33626
66.775 7.774468
66.780 7.657508
66.785 7.521126
66.790 7.8226
66.795 7.755225
66.800 7.353932
66.805 7.146256
66.810 6.999298
66.815 7.031565
66.820 7.244743
66.825 7.345351
66.830 7.668404
66.835 8.014873
66.840 7.855233
66.845 7.866252
66.850 8.050659
66.855 8.439467
66.860 8.227024
66.865 7.817742
66.870 7.764225
66.875 7.659706
66.880 6.944707
66.885 6.39894
66.890 5.716877
66.895 5.395196
66.900 5.197357
66.905 4.973969
66.910 4.761502
66.915 5.1736
66.920 5.41124
66.925 5.369229
66.930 5.433272
66.935 5.857982
66.940 6.665465
66.945 7.357399
66.950 7.43786
66.955 7.822017
66.960 7.94364
66.965 8.07871
66.970 8.376764
66.975 8.130889
66.980 8.017489
66.985 8.032257
66.990 7.733172
66.995 8.057896
67.000 8.261713
67.005 7.935249
67.010 7.676925
67.015 7.978106
67.020 8.027303
67.025 8.150912
67.030 8.502427
67.035 8.683622
67.040 8.725227
67.045 8.599199
67.050 8.046897
67.055 7.868691
67.060 7.623438
67.065 7.490992
67.070 7.406906
67.075 7.617262
67.080 7.871874
67.085 7.783811
67.090 7.949872
67.095 7.727437
67.100 7.475744
67.105 7.040766
67.110 6.762613
67.115 6.580006
67.120 7.013245
67.125 7.032691
67.130 7.143714
67.135 7.218308
67.140 7.272264
67.145 7.3646
67.150 7.500462
67.155 7.348577
67.160 7.512906
67.165 8.03265
67.170 8.231319
67.175 8.850277
67.180 8.916223
67.185 8.729399
67.190 8.73601
67.195 8.736354
67.200 8.432257
67.205 8.23614
67.210 7.942683
67.215 8.075529
67.220 8.38392
67.225 8.896447
67.230 9.004644
67.235 8.780957
67.240 8.792223
67.245 8.623074
67.250 8.411151
67.255 8.491086
67.260 8.263109
67.265 8.072996
67.270 8.372209
67.275 8.260503
67.280 8.130755
67.285 8.299696
67.290 7.746465
67.295 7.54539
67.300 7.537781
67.305 7.236704
67.310 7.471381
67.315 7.533561
67.320 7.759709
67.325 7.827775
67.330 7.648673
67.335 7.479985
67.340 7.446091
67.345 7.332626
67.350 7.421247
67.355 7.13248
67.360 7.520657
67.365 7.908492
67.370 8.121588
67.375 8.234941
67.380 8.713111
67.385 8.945846
67.390 9.248098
67.395 9.043902
67.400 8.745639
67.405 8.651576
67.410 8.587996
67.415 8.300589
67.420 8.387115
67.425 8.242987
67.430 8.108716
67.435 8.525549
67.440 8.648778
67.445 8.801238
67.450 9.172575
67.455 9.147073
67.460 9.263092
67.465 9.222635
67.470 8.770003
67.475 8.943129
67.480 9.292487
67.485 8.814729
67.490 8.458758
67.495 8.134439
67.500 8.177917
67.505 8.289817
67.510 8.159822
67.515 7.964909
67.520 7.917667
67.525 7.91265
67.530 8.154379
67.535 8.29373
67.540 8.116313
67.545 8.050364
67.550 7.785637
67.555 7.886601
67.560 8.124273
67.565 8.177762
67.570 8.129308
67.575 8.33716
67.580 8.313225
67.585 8.113092
67.590 8.107297
67.595 7.708694
67.600 8.19589
67.605 8.165069
67.610 8.075941
67.615 8.242889
67.620 8.472602
67.625 8.382491
67.630 8.248606
67.635 7.705785
67.640 7.210569
67.645 7.067496
67.650 6.908436
67.655 6.737973
67.660 6.525107
67.665 6.587413
67.670 6.863848
67.675 7.479045
67.680 7.43025
67.685 7.471513
67.690 7.49237
67.695 7.5881
67.700 7.384953
67.705 7.47884
67.710 7.246751
67.715 7.47762
67.720 7.263645
67.725 7.371503
67.730 8.07179
67.735 8.07795
67.740 8.047012
67.745 7.986144
67.750 7.769288
67.755 8.30911
67.760 8.2255
67.765 7.735057
67.770 8.007131
67.775 7.926613
67.780 8.158531
67.785 8.21484
67.790 7.639478
67.795 7.538921
67.800 7.421618
67.805 7.340862
67.810 7.243485
67.815 7.113421
67.820 7.237762
67.825 7.54507
67.830 8.131145
67.835 8.64508
67.840 8.540895
67.845 8.686481
67.850 8.883561
67.855 9.115458
67.860 9.123182
67.865 8.973156
67.870 9.135967
67.875 9.229366
67.880 8.97208
67.885 8.755488
67.890 8.834871
67.895 9.106927
67.900 8.930545
67.905 8.652075
67.910 8.700578
67.915 8.88975
67.920 8.822514
67.925 8.565911
67.930 8.374804
67.935 8.345121
67.940 8.724491
67.945 8.986926
67.950 8.872074
67.955 8.945696
67.960 8.722066
67.965 8.818156
67.970 9.12726
67.975 8.729631
67.980 8.509007
67.985 8.550818
67.990 8.833301
67.995 8.799455
68.000 8.243323
68.005 7.961006
68.010 8.199577
68.015 8.510966
68.020 8.712646
68.025 8.554249
68.030 8.475163
68.035 8.608416
68.040 8.677678
68.045 8.693252
68.050 8.67613
68.055 8.698931
68.060 8.953769
68.065 9.358107
68.070 9.459437
68.075 9.405323
68.080 9.170264
68.085 8.987514
68.090 8.755977
68.095 8.239842
68.100 8.079822
68.105 7.736595
68.110 7.913213
68.115 8.176474
68.120 8.274571
68.125 8.782287
68.130 8.94126
68.135 9.094936
68.140 9.570815
68.145 9.421409
68.150 9.181433
68.155 8.86187
68.160 8.516261
68.165 8.470477
68.170 8.209002
68.175 7.301801
68.180 7.198577
68.185 7.062901
68.190 7.341075
68.195 7.281082
68.200 7.654442
68.205 8.130488
68.210 8.807662
68.215 8.434298
68.220 8.172266
68.225 7.789208
68.230 7.745191
68.235 7.374848
68.240 6.934277
68.245 6.809607
68.250 7.076966
68.255 7.595797
68.260 7.460766
68.265 7.289579
68.270 7.244279
68.275 7.313504
68.280 7.273113
68.285 6.783567
68.290 6.64021
68.295 6.854757
68.300 7.278341
68.305 7.40547
68.310 7.352459
68.315 7.511987
68.320 7.969044
68.325 8.030228
68.330 7.559993
68.335 7.173046
68.340 7.429708
68.345 7.430914
68.350 7.289457
68.355 7.015457
68.360 6.797003
68.365 7.417439
68.370 7.637885
68.375 7.484539
68.380 7.208724
68.385 7.125965
68.390 7.275992
68.395 7.544437
68.400 7.24056
68.405 7.062011
68.410 7.016023
68.415 7.115509
68.420 7.514384
68.425 7.749025
68.430 7.740581
68.435 7.575515
68.440 7.285637
68.445 7.27382
68.450 7.20418
68.455 6.879834
68.460 6.950039
68.465 7.065347
68.470 7.486447
68.475 7.906562
68.480 7.713364
68.485 7.717965
68.490 7.813137
68.495 7.475523
68.500 7.34315
68.505 7.113161
68.510 7.005254
68.515 7.102571
68.520 6.976337
68.525 7.093482
68.530 7.26478
68.535 7.241601
68.540 6.917052
68.545 7.173796
68.550 7.258744
68.555 7.188154
68.560 6.859757
68.565 6.887482
68.570 6.871761
68.575 6.924675
68.580 6.724767
68.585 6.899072
68.590 7.245512
68.595 7.112307
68.600 7.138549
68.605 7.44458
68.610 7.538072
68.615 7.803594
68.620 7.465935
68.625 7.456112
68.630 7.393694
68.635 7.31592
68.640 6.926057
68.645 6.845157
68.650 6.649361
68.655 7.022069
68.660 7.133595
68.665 7.280838
68.670 7.228242
68.675 7.659631
68.680 8.129388
68.685 8.353265
68.690 8.565539
68.695 8.662526
68.700 8.580359
68.705 8.63405
68.710 8.183995
68.715 8.333246
68.720 8.560369
68.725 8.499701
68.730 8.198453
68.735 8.54599
68.740 8.917553
68.745 8.857781
68.750 8.697762
68.755 8.652426
68.760 8.928112
68.765 9.078716
68.770 9.187605
68.775 9.137303
68.780 9.125051
68.785 8.836143
68.790 8.137423
68.795 7.808763
68.800 7.824883
68.805 7.790943
68.810 8.006374
68.815 8.172794
68.820 8.112831
68.825 8.591514
68.830 8.654368
68.835 8.618973
68.840 8.443717
68.845 8.164726
68.850 8.130986
68.855 8.393018
68.860 8.296164
68.865 8.120522
68.870 8.248448
68.875 8.119622
68.880 8.432034
68.885 8.488706
68.890 8.531249
68.895 8.662169
68.900 9.313988
68.905 9.408321
68.910 9.801942
68.915 9.5861
68.920 9.585855
68.925 9.016187
68.930 9.149841
68.935 8.791977
68.940 8.577739
68.945 8.52067
68.950 8.493815
68.955 8.282596
68.960 8.238359
68.965 8.264751
68.970 8.54104
68.975 8.606703
68.980 8.596434
68.985 8.664398
68.990 8.971035
68.995 9.037538
69.000 8.682439
69.005 8.710616
69.010 8.827471
69.015 8.684676
69.020 8.476987
69.025 8.373604
69.030 8.506749
69.035 8.259733
69.040 7.829078
69.045 7.650623
69.050 7.743399
69.055 7.932554
69.060 8.114011
69.065 8.178545
69.070 8.194627
69.075 8.27068
69.080 8.322682
69.085 8.549735
69.090 8.615886
69.095 8.311277
69.100 8.560336
69.105 9.091192
69.110 9.140751
69.115 8.709752
69.120 8.080649
69.125 8.286141
69.130 8.336985
69.135 7.942349
69.140 8.07619
69.145 8.223583
69.150 8.245823
69.155 8.399537
69.160 8.480601
69.165 8.801058
69.170 8.792063
69.175 8.373561
69.180 8.393686
69.185 8.685804
69.190 9.178046
69.195 8.786229
69.200 8.654243
69.205 8.773939
69.210 8.903056
69.215 8.862896
69.220 8.559765
69.225 8.675924
69.230 8.40642
69.235 8.384209
69.240 8.283191
69.245 8.210955
69.250 8.226053
69.255 8.050665
69.260 7.864066
69.265 8.240011
69.270 8.24129
69.275 7.848181
69.280 7.695796
69.285 7.82415
69.290 7.981208
69.295 8.200009
69.300 7.982279
69.305 8.280757
69.310 8.871905
69.315 8.931184
69.320 9.063641
69.325 8.892409
69.330 8.293751
69.335 8.174246
69.340 7.950561
69.345 7.575993
69.350 7.47931
69.355 7.238084
69.360 7.234013
69.365 7.305609
69.370 7.294484
69.375 7.03722
69.380 6.894318
69.385 6.696316
69.390 6.771324
69.395 6.98659
69.400 7.244668
69.405 7.296769
69.410 7.696754
69.415 7.703746
69.420 7.74454
69.425 7.65983
69.430 7.532324
69.435 7.645247
69.440 7.771033
69.445 8.040855
69.450 8.453335
69.455 8.369678
69.460 8.440184
69.465 8.389794
69.470 8.440154
69.475 8.0649
69.480 7.709005
69.485 7.609238
69.490 7.353397
69.495 7.087892
69.500 7.14956
69.505 6.765791
69.510 7.148144
69.515 7.008124
69.520 7.241078
69.525 7.524861
69.530 7.419087
69.535 7.712646
69.540 7.936628
69.545 7.593087
69.550 7.847998
69.555 7.588196
69.560 7.632483
69.565 7.769938
69.570 7.716863
69.575 7.77192
69.580 7.628647
69.585 7.416683
69.590 7.515129
69.595 7.450707
69.600 7.357582
69.605 7.169829
69.610 6.988243
69.615 7.040405
69.620 7.457273
69.625 7.881717
69.630 8.114051
69.635 8.395844
69.640 8.669278
69.645 8.784315
69.650 8.717407
69.655 8.260956
69.660 8.25732
69.665 8.252582
69.670 8.185152
69.675 7.841667
69.680 7.716803
69.685 7.460819
69.690 7.536889
69.695 7.531239
69.700 7.630384
69.705 7.363525
69.710 8.237178
69.715 8.779741
69.720 9.38271
69.725 9.643229
69.730 9.415624
69.735 9.604398
69.740 9.625968
69.745 8.918063
69.750 8.728607
69.755 8.032291
69.760 7.685702
69.765 7.604948
69.770 7.400219
69.775 7.26643
69.780 7.426054
69.785 7.687472
69.790 7.682301
69.795 7.929977
69.800 7.918953
69.805 7.911546
69.810 7.943839
69.815 7.682229
69.820 7.334247
69.825 7.495516
69.830 7.34967
69.835 7.481563
69.840 7.499882
69.845 7.801701
69.850 7.904338
69.855 8.124923
69.860 7.997864
69.865 7.720118
69.870 7.53925
69.875 7.704018
69.880 7.226772
69.885 7.471245
69.890 7.514568
69.895 7.735886
69.900 7.896533
69.905 8.002843
69.910 7.788629
69.915 7.921689
69.920 7.812839
69.925 7.662746
69.930 7.795564
69.935 7.832624
69.940 7.906736
69.945 7.687544
69.950 7.61264
69.955 7.526975
69.960 7.633805
69.965 7.420777
69.970 7.321665
69.975 7.217849
69.980 7.980141
69.985 7.875942
69.990 7.772011
69.995 7.821709
70.000 7.90791
70.005 8.041216
70.010 7.885269
70.015 7.167747
70.020 7.517728
70.025 7.894566
70.030 7.832539
70.035 7.548356
70.040 7.266202
70.045 7.557521
70.050 7.822002
70.055 7.753013
70.060 7.558476
70.065 7.874021
70.070 7.985702
70.075 8.100958
70.080 7.63439
70.085 7.687778
70.090 7.777314
70.095 7.716466
70.100 7.930059
70.105 8.093727
70.110 8.257442
70.115 8.882161
70.120 8.597363
70.125 8.241988
70.130 8.02886
70.135 7.54077
70.140 7.628082
70.145 7.72436
70.150 7.315791
70.155 7.432212
70.160 7.460766
70.165 7.639395
70.170 8.066749
70.175 7.982024
70.180 8.049154
70.185 8.267069
70.190 8.514237
70.195 8.658031
70.200 8.626758
70.205 8.006294
70.210 8.25034
70.215 8.59884
70.220 8.681229
70.225 8.843844
70.230 8.833149
70.235 9.322837
70.240 9.431751
70.245 9.434236
70.250 9.679465
70.255 9.387383
70.260 9.170564
70.265 8.919357
70.270 8.636987
70.275 8.784159
70.280 8.609302
70.285 8.07947
70.290 7.999255
70.295 7.963353
70.300 8.11974
70.305 7.966755
70.310 7.465568
70.315 7.434997
70.320 7.952925
70.325 8.180882
70.330 8.022229
70.335 8.080633
70.340 9.114619
70.345 9.473639
70.350 9.334658
70.355 9.248927
70.360 9.303479
70.365 9.45889
70.370 9.616022
70.375 9.317263
70.380 9.238626
70.385 9.218285
70.390 8.991578
70.395 9.056373
70.400 8.83357
70.405 8.547169
70.410 8.262827
70.415 8.439607
70.420 8.705412
70.425 8.555513
70.430 8.607174
70.435 8.74367
70.440 8.716074
70.445 8.684879
70.450 8.273209
70.455 8.010599
70.460 8.346192
70.465 8.240705
70.470 8.201101
70.475 8.097177
70.480 8.03446
70.485 7.927071
70.490 7.620901
70.495 7.577601
70.500 7.901311
70.505 8.190493
70.510 8.529714
70.515 9.099643
70.520 9.59567
70.525 9.860116
70.530 9.825996
70.535 9.436307
70.540 9.312268
70.545 9.062252
70.550 8.695305
70.555 8.431843
70.560 8.342834
70.565 8.504759
70.570 8.510395
70.575 8.258266
70.580 8.117308
70.585 8.210355
70.590 8.528122
70.595 8.315479
70.600 8.123383
70.605 8.336537
70.610 8.16596
70.615 8.602445
70.620 8.464547
70.625 8.224174
70.630 8.42545
70.635 8.658361
70.640 8.43653
70.645 8.495655
70.650 8.440504
70.655 8.783047
70.660 9.243779
70.665 9.40029
70.670 9.481565
70.675 9.686507
70.680 9.943099
70.685 9.863497
70.690 9.82305
70.695 9.677855
70.700 9.325669
70.705 9.386172
70.710 9.369997
70.715 9.455257
70.720 9.176757
70.725 8.684469
70.730 8.384169
70.735 7.995114
70.740 7.721331
70.745 7.448124
70.750 7.352267
70.755 7.746091
70.760 8.19759
70.765 8.327897
70.770 8.328654
70.775 8.389512
70.780 8.791421
70.785 8.31646
70.790 7.929447
70.795 7.568955
70.800 7.45975
70.805 7.406403
70.810 7.10385
70.815 6.942702
70.820 7.218175
70.825 7.069726
70.830 7.275935
70.835 7.685414
70.840 7.827263
70.845 7.960504
70.850 8.24859
70.855 7.962815
70.860 8.108111
70.865 8.070655
70.870 7.850259
70.875 7.794745
70.880 7.415764
70.885 7.523993
70.890 7.821063
70.895 7.73953
70.900 7.519623
70.905 7.33086
70.910 7.189247
70.915 7.203433
70.920 6.843821
70.925 6.686928
70.930 6.734834
70.935 6.961631
70.940 7.174106
70.945 7.492926
70.950 7.360754
70.955 7.357549
70.960 7.104765
70.965 6.736775
70.970 6.80898
70.975 6.995492
70.980 7.004153
70.985 7.356853
70.990 7.289436
70.995 7.169929
71.000 7.409726
71.005 7.421683
71.010 7.35564
71.015 7.214856
71.020 6.976209
71.025 7.358831
71.030 7.888551
71.035 7.535448
71.040 7.30533
71.045 7.209352
71.050 7.206361
71.055 7.595326
71.060 7.165974
71.065 6.837091
71.070 7.226468
71.075 7.434981
71.080 7.621623
71.085 7.713082
71.090 7.722085
71.095 8.050627
71.100 8.386361
71.105 8.305314
71.110 7.951328
71.115 7.936903
71.120 7.786276
71.125 7.479448
71.130 7.156023
71.135 6.866239
71.140 7.255954
71.145 7.368939
71.150 7.048731
71.155 7.356039
71.160 7.373241
71.165 7.078756
71.170 7.129288
71.175 6.89014
71.180 6.755248
71.185 7.121295
71.190 6.820656
71.195 6.938624
71.200 7.290297
71.205 7.469212
71.210 7.687436
71.215 7.677121
71.220 7.666395
71.225 7.549175
71.230 7.649599
71.235 7.843595
71.240 7.72173
71.245 7.727238
71.250 7.733208
71.255 7.250396
71.260 7.396308
71.265 7.426056
71.270 7.19435
71.275 7.49964
71.280 7.419818
71.285 7.566786
71.290 7.798948
71.295 7.630932
71.300 7.554361
71.305 7.639585
71.310 7.063887
71.315 7.23692
71.320 7.228158
71.325 6.991979
71.330 7.541621
71.335 7.658026
71.340 8.092161
71.345 8.111751
71.350 8.138487
71.355 8.183689
71.360 8.497579
71.365 8.076386
71.370 7.87917
71.375 7.724044
71.380 7.660888
71.385 7.880018
71.390 8.180733
71.395 8.088757
71.400 8.161843
71.405 7.844667
71.410 7.541443
71.415 7.318946
71.420 7.114906
71.425 6.758692
71.430 6.552139
71.435 6.682365
71.440 7.118292
71.445 7.284703
71.450 7.612016
71.455 7.721039
71.460 8.023911
71.465 7.870341
71.470 7.740082
71.475 7.568047
71.480 7.162857
71.485 6.993622
71.490 6.955347
71.495 7.524223
71.500 7.893721
71.505 7.798738
71.510 8.175731
71.515 8.522411
71.520 8.70912
71.525 8.571742
71.530 8.159489
71.535 8.157135
71.540 8.468927
71.545 8.091879
71.550 7.735826
71.555 7.584958
71.560 7.596297
71.565 7.565078
71.570 7.2623
71.575 7.13097
71.580 7.428491
71.585 7.738988
71.590 7.96773
71.595 7.60814
71.600 7.794641
71.605 7.636839
71.610 7.772672
71.615 7.799844
71.620 7.653005
71.625 7.620226
71.630 7.890843
71.635 7.498142
71.640 7.593835
71.645 7.576147
71.650 7.775058
71.655 7.690415
71.660 7.472285
71.665 7.222549
71.670 7.518241
71.675 7.282425
71.680 6.999939
71.685 7.032132
71.690 7.106654
71.695 7.327572
71.700 7.425262
71.705 7.87442
71.710 8.173635
71.715 8.249144
71.720 7.965911
71.725 8.130238
71.730 8.267488
71.735 8.086565
71.740 7.625883
71.745 7.636319
71.750 7.718622
71.755 7.514321
71.760 7.449091
71.765 7.490914
71.770 7.558912
71.775 7.391963
71.780 7.67652
71.785 8.087075
71.790 8.357212
71.795 8.081373
71.800 8.049716
71.805 8.33551
71.810 8.922291
71.815 8.597757
71.820 8.606276
71.825 8.707397
71.830 8.735131
71.835 8.362945
71.840 7.840953
71.845 7.531383
71.850 7.434822
71.855 7.465944
71.860 7.432654
71.865 7.770937
71.870 8.168976
71.875 8.61701
71.880 8.603177
71.885 8.866094
71.890 8.118236
71.895 8.309754
71.900 8.39035
71.905 8.515182
71.910 8.785533
71.915 8.879349
71.920 8.673992
71.925 9.095467
71.930 8.819927
71.935 8.624745
71.940 7.912084
71.945 7.225219
71.950 6.78654
71.955 6.758539
71.960 6.35196
71.965 6.122897
71.970 6.692097
71.975 7.088688
71.980 7.248237
71.985 7.720978
71.990 8.100107
71.995 8.633538
72.000 9.132609
72.005 8.707605
72.010 8.696384
72.015 8.941192
72.020 9.005685
72.025 9.157856
72.030 8.860317
72.035 8.612408
72.040 8.680519
72.045 8.953401
72.050 8.810479
72.055 8.524127
72.060 8.067909
72.065 8.30154
72.070 8.22844
72.075 8.554756
72.080 8.217813
72.085 8.286881
72.090 8.374379
72.095 8.37571
72.100 8.215628
72.105 8.2347
72.110 8.083466
72.115 8.167134
72.120 8.315692
72.125 8.571796
72.130 8.472692
72.135 8.485788
72.140 8.449636
72.145 8.111154
72.150 8.383416
72.155 8.028619
72.160 7.701676
72.165 7.676724
72.170 7.534724
72.175 7.252406
72.180 7.512239
72.185 7.04086
72.190 7.392439
72.195 8.092548
72.200 8.35442
72.205 8.724833
72.210 9.084528
72.215 9.025588
72.220 9.773291
72.225 9.609706
72.230 9.315845
72.235 9.264271
72.240 9.311038
72.245 9.50418
72.250 9.303042
72.255 8.974232
72.260 8.889404
72.265 8.572664
72.270 8.117049
72.275 7.769186
72.280 7.701201
72.285 7.397848
72.290 7.096477
72.295 7.056853
72.300 7.264922
72.305 7.351563
72.310 7.238798
72.315 7.254736
72.320 7.147974
72.325 7.478776
72.330 7.448704
72.335 7.963041
72.340 8.080937
72.345 7.952375
72.350 8.053603
72.355 8.404312
72.360 8.386617
72.365 8.214833
72.370 8.054288
72.375 8.202188
72.380 8.360984
72.385 7.915517
72.390 7.692331
72.395 7.804178
72.400 7.461687
72.405 7.3371
72.410 7.178268
72.415 7.494984
72.420 8.415803
72.425 8.528561
72.430 8.873227
72.435 8.877696
72.440 8.787032
72.445 8.814628
72.450 8.700665
72.455 8.232375
72.460 7.859813
72.465 7.547022
72.470 7.432343
72.475 7.571257
72.480 7.64543
72.485 7.347606
72.490 7.553033
72.495 7.802016
72.500 7.650436
72.505 7.893562
72.510 8.013309
72.515 7.856338
72.520 8.119103
72.525 8.028672
72.530 8.154664
72.535 8.578175
72.540 8.464166
72.545 8.188393
72.550 8.22649
72.555 7.624314
72.560 7.656698
72.565 7.541946
72.570 7.74229
72.575 7.994109
72.580 8.650652
72.585 8.925614
72.590 9.127628
72.595 8.982522
72.600 8.956778
72.605 8.746593
72.610 8.687466
72.615 8.19355
72.620 8.209122
72.625 7.893311
72.630 7.656912
72.635 7.506571
72.640 7.244164
72.645 6.879976
72.650 6.869444
72.655 6.742385
72.660 7.069057
72.665 7.092329
72.670 7.18054
72.675 7.797664
72.680 8.023705
72.685 7.836152
72.690 7.84164
72.695 7.668902
72.700 7.759895
72.705 7.48196
72.710 7.345254
72.715 7.163892
72.720 6.756095
72.725 6.905055
72.730 7.440688
72.735 7.782569
72.740 7.674249
72.745 7.64842
72.750 7.48869
72.755 7.93626
72.760 7.856835
72.765 7.565791
72.770 7.15589
72.775 7.051288
72.780 7.160699
72.785 7.628832
72.790 7.415506
72.795 7.192539
72.800 7.421221
72.805 7.501355
72.810 7.52731
72.815 7.388542
72.820 7.148903
72.825 7.066039
72.830 7.195565
72.835 6.857493
72.840 6.776362
72.845 6.865099
72.850 7.18726
72.855 7.365665
72.860 7.516278
72.865 7.742902
72.870 8.146676
72.875 8.122637
72.880 7.834095
72.885 7.612537
72.890 7.819902
72.895 7.599906
72.900 7.033988
72.905 7.454354
72.910 7.777054
72.915 7.80224
72.920 7.725195
72.925 7.5352
72.930 7.597185
72.935 7.425469
72.940 7.161249
72.945 7.267726
72.950 7.403104
72.955 7.42101
72.960 7.881118
72.965 8.454903
72.970 8.694091
72.975 8.674621
72.980 8.656825
72.985 8.584101
72.990 8.142379
72.995 7.377573
73.000 7.148021
