!@!!GADDS PLOTSO FILE: Chi integration type
!@!!Title/SampleName: map-161
!@!!Comment: ?
!@!!User: Bruker Instrument Administrator
!@!!Site: University of Illinois Chicago
!@!!Frame: map-161_01_000.gfrm
!@!!Wavelengths    1.54184   1.54056   1.54439
!@!!Frame angles: 2Theta: 63.000 Omega: 50.000 Phi: 0.000 Chi: 90.000
!@!!Integration range: 2Theta: 53.000 to 73.000  Gamma: -105.000 to -75.000
!@!!Integration method: bin normalized
!@!N
!@!SS
!@!M
!@!L 0.0 0.0 0.0 0.0
!@!XDegrees
!@!YCounts
53.000 5.900562
53.005 5.858308
53.010 6.080732
53.015 6.180762
53.020 6.396677
53.025 6.440496
53.030 6.509119
53.035 6.672282
53.040 6.610335
53.045 6.738274
53.050 6.940193
53.055 6.652527
53.060 6.706797
53.065 6.600626
53.070 6.717626
53.075 6.772122
53.080 6.224096
53.085 6.102128
53.090 6.315084
53.095 6.48022
53.100 6.450143
53.105 6.695023
53.110 7.240074
53.115 7.400461
53.120 7.399551
53.125 7.641409
53.130 7.657063
53.135 7.806747
53.140 7.647208
53.145 7.547466
53.150 7.499229
53.155 7.312282
53.160 6.709529
53.165 6.74668
53.170 6.432699
53.175 6.045828
53.180 6.037161
53.185 6.03812
53.190 6.533456
53.195 6.852822
53.200 6.729228
53.205 6.682204
53.210 6.618761
53.215 6.653109
53.220 6.776865
53.225 6.494624
53.230 5.963505
53.235 5.81675
53.240 5.879635
53.245 6.052545
53.250 5.811749
53.255 5.78934
53.260 5.706455
53.265 5.899011
53.270 5.944875
53.275 5.896442
53.280 6.033584
53.285 6.105248
53.290 6.379897
53.295 6.344831
53.300 6.461333
53.305 6.556814
53.310 6.576906
53.315 6.799168
53.320 6.690282
53.325 6.67602
53.330 6.690858
53.335 6.674263
53.340 6.610954
53.345 6.677952
53.350 6.712533
53.355 6.422976
53.360 6.433014
53.365 6.738853
53.370 6.598605
53.375 6.31074
53.380 6.156499
53.385 6.290945
53.390 6.626472
53.395 6.721668
53.400 6.585244
53.405 6.857485
53.410 7.03992
53.415 6.980462
53.420 6.735157
53.425 6.168012
53.430 6.039332
53.435 5.904432
53.440 6.297968
53.445 6.107244
53.450 5.870077
53.455 6.077888
53.460 6.544749
53.465 6.913936
53.470 7.07697
53.475 6.703721
53.480 6.845237
53.485 6.860198
53.490 6.986357
53.495 6.802848
53.500 6.493588
53.505 6.368834
53.510 6.428748
53.515 6.342494
53.520 5.920653
53.525 5.874023
53.530 6.107049
53.535 6.25115
53.540 6.430749
53.545 6.515203
53.550 6.712778
53.555 7.129026
53.560 7.048445
53.565 6.984772
53.570 6.866256
53.575 6.959729
53.580 7.105098
53.585 6.74083
53.590 6.37554
53.595 5.918926
53.600 5.588839
53.605 5.300519
53.610 5.233146
53.615 5.279284
53.620 5.649536
53.625 6.071073
53.630 6.630172
53.635 7.043981
53.640 7.334074
53.645 7.561192
53.650 7.817481
53.655 7.699187
53.660 7.635302
53.665 7.4442
53.670 7.674518
53.675 7.577207
53.680 6.858709
53.685 6.595638
53.690 6.294728
53.695 5.971502
53.700 6.090192
53.705 6.249671
53.710 6.351399
53.715 6.327826
53.720 6.162827
53.725 6.414656
53.730 6.379535
53.735 5.789257
53.740 5.574096
53.745 5.677194
53.750 6.346069
53.755 6.81671
53.760 6.858465
53.765 7.171265
53.770 7.75609
53.775 8.011291
53.780 7.839257
53.785 7.717288
53.790 7.941335
53.795 8.15966
53.800 8.129231
53.805 8.131756
53.810 8.263516
53.815 8.651052
53.820 8.455647
53.825 8.644131
53.830 8.604683
53.835 8.105878
53.840 7.601641
53.845 7.190353
53.850 7.197317
53.855 6.893963
53.860 6.594977
53.865 6.935615
53.870 6.801929
53.875 6.912092
53.880 6.625239
53.885 6.600905
53.890 6.410033
53.895 6.259686
53.900 6.493928
53.905 6.818529
53.910 7.347476
53.915 7.672091
53.920 7.803861
53.925 8.063563
53.930 7.867541
53.935 7.910882
53.940 7.900272
53.945 7.449223
53.950 7.479523
53.955 7.144001
53.960 7.607841
53.965 7.82842
53.970 7.699089
53.975 7.764638
53.980 7.855962
53.985 7.74945
53.990 7.721135
53.995 7.306349
54.000 6.997505
54.005 6.821208
54.010 6.592098
54.015 6.387378
54.020 6.455856
54.025 6.809663
54.030 7.049275
54.035 6.981786
54.040 7.040094
54.045 7.226313
54.050 7.360175
54.055 7.454179
54.060 7.385529
54.065 7.544035
54.070 7.795688
54.075 7.681726
54.080 7.539334
54.085 7.369955
54.090 7.205416
54.095 7.038181
54.100 6.826824
54.105 7.091194
54.110 7.512894
54.115 7.686534
54.120 8.014212
54.125 8.375444
54.130 8.444315
54.135 8.291686
54.140 8.126298
54.145 7.76138
54.150 7.71382
54.155 7.293334
54.160 6.806265
54.165 6.55554
54.170 6.599625
54.175 6.470294
54.180 6.591972
54.185 6.498144
54.190 6.677448
54.195 7.297234
54.200 7.41875
54.205 6.98274
54.210 6.888557
54.215 7.042072
54.220 7.14522
54.225 7.102278
54.230 6.769579
54.235 6.79651
54.240 6.764294
54.245 7.118161
54.250 6.927819
54.255 6.931487
54.260 6.920992
54.265 6.748603
54.270 7.14994
54.275 7.402717
54.280 7.291512
54.285 7.496813
54.290 7.453589
54.295 7.770552
54.300 8.062161
54.305 7.904888
54.310 8.080842
54.315 7.685677
54.320 7.629886
54.325 7.604825
54.330 7.276159
54.335 7.099895
54.340 7.026608
54.345 6.918121
54.350 7.101507
54.355 7.045307
54.360 7.081629
54.365 7.292824
54.370 7.554265
54.375 7.561273
54.380 7.753746
54.385 7.496088
54.390 7.501001
54.395 7.153884
54.400 7.050702
54.405 6.940457
54.410 6.851677
54.415 6.497761
54.420 6.628568
54.425 6.532223
54.430 6.718353
54.435 6.611295
54.440 6.174834
54.445 6.397158
54.450 6.698689
54.455 6.878237
54.460 6.906395
54.465 6.864214
54.470 7.386496
54.475 7.739695
54.480 7.877624
54.485 8.102429
54.490 7.968772
54.495 7.749866
54.500 7.770643
54.505 7.339762
54.510 7.725893
54.515 7.679417
54.520 7.522055
54.525 7.747469
54.530 7.911023
54.535 7.695634
54.540 7.517961
54.545 7.158828
54.550 7.230349
54.555 7.548476
54.560 7.734417
54.565 7.88855
54.570 7.943649
54.575 8.00584
54.580 7.509953
54.585 7.475451
54.590 7.253221
54.595 7.391475
54.600 7.367037
54.605 7.375354
54.610 7.33936
54.615 7.486392
54.620 7.376194
54.625 7.767247
54.630 7.782482
54.635 7.593228
54.640 7.827001
54.645 7.968119
54.650 7.945875
54.655 8.003998
54.660 8.234979
54.665 8.458361
54.670 8.712489
54.675 8.752124
54.680 8.828206
54.685 9.145293
54.690 8.839599
54.695 8.382792
54.700 8.083081
54.705 8.028461
54.710 7.592981
54.715 7.458058
54.720 7.347682
54.725 6.999874
54.730 7.483226
54.735 7.429613
54.740 7.296177
54.745 7.30838
54.750 7.123377
54.755 7.20448
54.760 7.032678
54.765 6.559559
54.770 7.029362
54.775 7.534044
54.780 7.991997
54.785 8.4032
54.790 8.625316
54.795 8.788335
54.800 8.788299
54.805 8.166651
54.810 7.764219
54.815 7.749953
54.820 7.634517
54.825 7.523693
54.830 7.26903
54.835 7.265448
54.840 7.616267
54.845 7.583054
54.850 7.27313
54.855 7.10866
54.860 7.108688
54.865 7.064007
54.870 6.894555
54.875 6.98524
54.880 7.126204
54.885 6.914005
54.890 6.817735
54.895 7.145878
54.900 7.331172
54.905 7.370785
54.910 7.224455
54.915 7.199906
54.920 7.070858
54.925 6.911861
54.930 6.422638
54.935 6.087974
54.940 5.820167
54.945 5.975211
54.950 6.576403
54.955 6.788834
54.960 6.94014
54.965 7.295465
54.970 7.609996
54.975 7.826654
54.980 7.670034
54.985 7.857894
54.990 7.955244
54.995 8.019119
55.000 7.887264
55.005 8.025603
55.010 8.413743
55.015 8.6793
55.020 8.088615
55.025 8.029316
55.030 8.106354
55.035 8.08196
55.040 7.777788
55.045 7.316479
55.050 7.155962
55.055 7.573238
55.060 7.459842
55.065 7.193251
55.070 7.207683
55.075 7.217866
55.080 7.190191
55.085 7.099477
55.090 6.889343
55.095 7.39274
55.100 7.931319
55.105 7.907194
55.110 7.856064
55.115 7.795688
55.120 7.820789
55.125 8.149228
55.130 8.09875
55.135 8.015691
55.140 8.179325
55.145 8.358706
55.150 8.083592
55.155 7.713268
55.160 7.650608
55.165 7.65656
55.170 7.736654
55.175 7.76269
55.180 7.670325
55.185 7.941282
55.190 8.075723
55.195 7.819605
55.200 7.521098
55.205 7.6812
55.210 7.77715
55.215 7.95753
55.220 8.372841
55.225 8.853302
55.230 9.107877
55.235 9.310956
55.240 9.037878
55.245 8.942426
55.250 8.625803
55.255 7.538901
55.260 7.151621
55.265 7.050938
55.270 7.009921
55.275 7.343743
55.280 7.712941
55.285 8.012637
55.290 8.181429
55.295 8.048238
55.300 7.575902
55.305 7.35345
55.310 7.111206
55.315 6.786335
55.320 6.754542
55.325 7.224914
55.330 7.307755
55.335 7.179503
55.340 7.061034
55.345 6.974619
55.350 6.982234
55.355 7.01246
55.360 6.76029
55.365 6.898708
55.370 6.947075
55.375 7.342343
55.380 7.620574
55.385 7.625678
55.390 7.44746
55.395 7.813971
55.400 7.943511
55.405 8.419006
55.410 7.865554
55.415 7.495189
55.420 7.504308
55.425 7.483852
55.430 7.364317
55.435 7.412513
55.440 7.099676
55.445 7.559244
55.450 7.834208
55.455 7.818689
55.460 8.052705
55.465 8.186749
55.470 7.984634
55.475 8.161354
55.480 8.154932
55.485 8.414257
55.490 8.603759
55.495 8.194435
55.500 7.741444
55.505 7.771566
55.510 7.692639
55.515 7.489182
55.520 7.622869
55.525 7.498324
55.530 7.367285
55.535 7.818212
55.540 7.748827
55.545 7.192954
55.550 7.281076
55.555 7.171099
55.560 7.481421
55.565 8.158554
55.570 7.905666
55.575 7.955203
55.580 8.324217
55.585 8.266454
55.590 8.417225
55.595 7.991555
55.600 7.544657
55.605 7.832439
55.610 8.192924
55.615 7.913243
55.620 7.657977
55.625 7.169113
55.630 7.037872
55.635 7.035776
55.640 6.795753
55.645 6.846035
55.650 7.231067
55.655 7.501219
55.660 7.801961
55.665 7.868755
55.670 8.124867
55.675 8.16922
55.680 8.338912
55.685 8.350647
55.690 8.289464
55.695 8.452979
55.700 8.478894
55.705 8.671936
55.710 8.251603
55.715 7.784901
55.720 7.361684
55.725 7.101435
55.730 6.981915
55.735 6.862642
55.740 6.768892
55.745 7.297649
55.750 7.628603
55.755 7.807839
55.760 8.05293
55.765 7.84764
55.770 8.042347
55.775 7.966981
55.780 7.483037
55.785 7.22697
55.790 7.131657
55.795 7.232238
55.800 7.459872
55.805 7.051884
55.810 7.096508
55.815 7.552144
55.820 7.838489
55.825 7.838202
55.830 7.691558
55.835 7.927064
55.840 8.123219
55.845 8.235633
55.850 8.131134
55.855 8.001593
55.860 7.754367
55.865 7.826916
55.870 7.473261
55.875 7.610264
55.880 7.458806
55.885 7.681748
55.890 7.656428
55.895 7.919102
55.900 7.53519
55.905 7.477908
55.910 7.451158
55.915 7.515381
55.920 7.510374
55.925 7.802559
55.930 7.748061
55.935 7.959726
55.940 8.664932
55.945 8.783065
55.950 9.025834
55.955 8.865294
55.960 8.821982
55.965 9.077631
55.970 8.90027
55.975 8.385592
55.980 8.151788
55.985 7.45279
55.990 7.332701
55.995 7.376797
56.000 6.957911
56.005 6.999458
56.010 7.071933
56.015 7.301614
56.020 7.742002
56.025 8.004393
56.030 8.443801
56.035 8.793837
56.040 9.151309
56.045 8.812655
56.050 8.571491
56.055 8.43809
56.060 8.555827
56.065 8.325931
56.070 8.171858
56.075 7.689969
56.080 7.823373
56.085 7.704391
56.090 7.147381
56.095 6.690929
56.100 6.436449
56.105 6.202327
56.110 6.675217
56.115 6.985101
56.120 7.263031
56.125 7.754196
56.130 8.016907
56.135 8.449696
56.140 8.660217
56.145 8.294768
56.150 8.131189
56.155 8.213387
56.160 8.225552
56.165 7.972615
56.170 7.894092
56.175 7.901181
56.180 8.267159
56.185 8.63736
56.190 9.020736
56.195 8.942417
56.200 9.050424
56.205 9.045396
56.210 9.16345
56.215 8.677329
56.220 7.820453
56.225 7.249008
56.230 7.456482
56.235 7.71596
56.240 7.921819
56.245 8.042487
56.250 8.364957
56.255 8.784775
56.260 9.164917
56.265 9.181362
56.270 8.563408
56.275 8.384767
56.280 8.322561
56.285 8.496417
56.290 8.815829
56.295 8.395707
56.300 8.230942
56.305 8.549081
56.310 8.310151
56.315 7.745718
56.320 7.543075
56.325 7.177495
56.330 7.471958
56.335 7.536292
56.340 7.225605
56.345 7.379924
56.350 7.815038
56.355 7.833687
56.360 7.549744
56.365 7.757799
56.370 8.077898
56.375 8.314782
56.380 8.175704
56.385 8.053758
56.390 8.076999
56.395 8.286463
56.400 8.051567
56.405 8.145535
56.410 8.300177
56.415 8.721539
56.420 8.803453
56.425 8.941425
56.430 9.105048
56.435 9.258238
56.440 9.14826
56.445 9.009397
56.450 8.87838
56.455 9.113851
56.460 9.153315
56.465 9.018201
56.470 8.606627
56.475 8.582012
56.480 8.698256
56.485 8.868314
56.490 8.762348
56.495 8.761888
56.500 9.015224
56.505 9.687819
56.510 9.604893
56.515 9.430751
56.520 9.44176
56.525 9.597395
56.530 9.821377
56.535 9.56955
56.540 9.028107
56.545 9.210186
56.550 9.139734
56.555 9.032743
56.560 9.169509
56.565 9.072283
56.570 9.243561
56.575 9.159595
56.580 9.181498
56.585 9.249737
56.590 9.386943
56.595 9.510557
56.600 9.365677
56.605 9.460301
56.610 10.111354
56.615 10.385254
56.620 10.45813
56.625 10.254734
56.630 10.221466
56.635 10.414028
56.640 9.886899
56.645 9.235361
56.650 8.93291
56.655 8.593114
56.660 8.050972
56.665 7.59246
56.670 7.517894
56.675 8.274385
56.680 8.96847
56.685 9.326847
56.690 9.763454
56.695 10.192408
56.700 10.428471
56.705 10.110357
56.710 9.289896
56.715 8.599473
56.720 8.567422
56.725 8.416357
56.730 8.049659
56.735 7.859989
56.740 8.593151
56.745 9.092448
56.750 9.52523
56.755 9.420005
56.760 9.613464
56.765 9.941486
56.770 10.346179
56.775 9.998444
56.780 9.994683
56.785 9.779861
56.790 9.396339
56.795 8.982724
56.800 8.793731
56.805 8.777361
56.810 8.955873
56.815 8.976478
56.820 8.787385
56.825 9.101734
56.830 9.430397
56.835 9.598845
56.840 9.171017
56.845 9.173652
56.850 9.026569
56.855 9.300058
56.860 8.816598
56.865 8.706012
56.870 8.735734
56.875 8.612685
56.880 7.969872
56.885 7.832444
56.890 8.155903
56.895 8.402191
56.900 7.797504
56.905 7.303738
56.910 7.554978
56.915 8.060402
56.920 7.928021
56.925 7.481977
56.930 7.350349
56.935 7.813374
56.940 8.363386
56.945 7.980945
56.950 7.840538
56.955 8.098029
56.960 8.545069
56.965 8.867896
56.970 8.896838
56.975 8.734927
56.980 9.107665
56.985 9.137825
56.990 8.740493
56.995 8.333225
57.000 7.902508
57.005 7.578184
57.010 7.608076
57.015 7.353972
57.020 7.370786
57.025 7.55972
57.030 7.547638
57.035 7.960954
57.040 8.239306
57.045 8.276584
57.050 8.379027
57.055 7.926793
57.060 7.820128
57.065 7.798358
57.070 7.720476
57.075 7.772588
57.080 7.759641
57.085 7.713527
57.090 7.793871
57.095 7.827805
57.100 7.679626
57.105 7.697886
57.110 7.592446
57.115 7.748479
57.120 7.912916
57.125 8.064419
57.130 8.882448
57.135 9.145624
57.140 8.737445
57.145 8.454049
57.150 8.185433
57.155 8.003656
57.160 7.955472
57.165 7.180912
57.170 7.507044
57.175 8.292264
57.180 8.526375
57.185 9.004782
57.190 8.953054
57.195 8.884581
57.200 8.871626
57.205 8.672264
57.210 8.308317
57.215 8.194134
57.220 7.704237
57.225 7.869147
57.230 7.907801
57.235 7.798244
57.240 7.433487
57.245 7.242096
57.250 7.358506
57.255 7.866985
57.260 7.678045
57.265 7.477745
57.270 7.852637
57.275 7.956527
57.280 7.766411
57.285 7.371277
57.290 7.053204
57.295 7.147523
57.300 7.407887
57.305 7.343424
57.310 7.22925
57.315 7.227355
57.320 7.449212
57.325 7.973392
57.330 8.236078
57.335 8.252089
57.340 8.313409
57.345 8.507993
57.350 8.490951
57.355 8.677744
57.360 8.688457
57.365 8.79608
57.370 8.761214
57.375 9.088789
57.380 9.384288
57.385 9.37197
57.390 8.912875
57.395 8.611511
57.400 8.345488
57.405 7.989915
57.410 7.248138
57.415 7.153785
57.420 7.463149
57.425 7.506068
57.430 7.64553
57.435 7.854654
57.440 8.152466
57.445 8.458992
57.450 8.25703
57.455 7.97191
57.460 8.425937
57.465 8.4519
57.470 8.738097
57.475 8.66059
57.480 8.824362
57.485 9.238906
57.490 9.745358
57.495 9.620203
57.500 9.609891
57.505 9.431413
57.510 9.263208
57.515 8.877296
57.520 8.702846
57.525 8.009264
57.530 7.93545
57.535 7.937529
57.540 7.668142
57.545 7.949147
57.550 7.959479
57.555 8.28784
57.560 9.139424
57.565 9.030119
57.570 8.702361
57.575 8.708371
57.580 8.951876
57.585 8.882062
57.590 7.955341
57.595 7.177612
57.600 7.185177
57.605 7.456943
57.610 7.569057
57.615 7.421574
57.620 7.707598
57.625 8.702518
57.630 9.219404
57.635 9.149463
57.640 8.996274
57.645 8.802296
57.650 8.969806
57.655 9.096987
57.660 8.369684
57.665 8.083466
57.670 8.352106
57.675 8.432732
57.680 8.640296
57.685 8.38895
57.690 8.445869
57.695 8.682192
57.700 8.584767
57.705 8.357351
57.710 8.893892
57.715 8.825969
57.720 8.835342
57.725 8.726146
57.730 8.968023
57.735 9.291462
57.740 9.264731
57.745 8.328846
57.750 8.340869
57.755 8.433201
57.760 8.245797
57.765 7.639804
57.770 7.177732
57.775 7.547812
57.780 7.781066
57.785 7.906739
57.790 7.802915
57.795 7.9628
57.800 8.483334
57.805 8.683895
57.810 8.58655
57.815 9.021057
57.820 8.837292
57.825 8.53796
57.830 8.665446
57.835 8.799767
57.840 8.770018
57.845 8.620853
57.850 8.359026
57.855 8.592898
57.860 8.811132
57.865 8.294925
57.870 8.053469
57.875 8.258988
57.880 8.392118
57.885 8.530828
57.890 8.911869
57.895 9.113878
57.900 9.384241
57.905 9.278718
57.910 9.004319
57.915 8.900373
57.920 8.801154
57.925 8.573935
57.930 8.692945
57.935 8.695827
57.940 8.683437
57.945 9.102576
57.950 9.095412
57.955 8.887534
57.960 9.027944
57.965 8.677361
57.970 8.617864
57.975 8.442451
57.980 8.156118
57.985 8.361081
57.990 8.351637
57.995 8.411238
58.000 8.736175
58.005 8.749685
58.010 8.849236
58.015 8.685343
58.020 8.324577
58.025 7.958308
58.030 7.560732
58.035 7.4706
58.040 7.607998
58.045 7.524253
58.050 7.531991
58.055 7.778
58.060 8.030753
58.065 8.124697
58.070 8.16912
58.075 8.333062
58.080 8.543577
58.085 8.531112
58.090 8.787163
58.095 8.911906
58.100 9.298845
58.105 9.215886
58.110 8.881587
58.115 9.215605
58.120 9.195443
58.125 8.836424
58.130 8.642807
58.135 8.047234
58.140 8.347706
58.145 8.932807
58.150 9.03658
58.155 9.169302
58.160 9.180902
58.165 9.169936
58.170 9.171651
58.175 8.86021
58.180 8.664782
58.185 8.401189
58.190 8.587511
58.195 8.496442
58.200 8.37763
58.205 8.401608
58.210 8.259741
58.215 7.959126
58.220 7.771381
58.225 7.642337
58.230 7.963978
58.235 8.48009
58.240 8.478665
58.245 8.313347
58.250 8.393327
58.255 8.544453
58.260 8.441097
58.265 8.458684
58.270 8.454761
58.275 8.728973
58.280 8.348056
58.285 8.153069
58.290 8.017982
58.295 8.066943
58.300 8.301901
58.305 8.474348
58.310 8.852442
58.315 9.496421
58.320 9.427345
58.325 9.305421
58.330 8.989001
58.335 8.925564
58.340 8.597571
58.345 8.465285
58.350 7.867198
58.355 7.59368
58.360 7.798263
58.365 7.799676
58.370 7.209965
58.375 6.941428
58.380 6.827693
58.385 6.988605
58.390 7.555166
58.395 7.803019
58.400 8.174885
58.405 8.54499
58.410 8.376478
58.415 8.407204
58.420 8.687223
58.425 8.152495
58.430 8.087095
58.435 7.702466
58.440 7.543064
58.445 7.844354
58.450 7.638289
58.455 7.428771
58.460 7.84815
58.465 7.998669
58.470 8.07362
58.475 8.204414
58.480 8.278827
58.485 8.343123
58.490 8.649812
58.495 8.102232
58.500 8.035915
58.505 8.275431
58.510 8.397324
58.515 8.222801
58.520 8.252696
58.525 8.457276
58.530 8.746139
58.535 8.765949
58.540 8.54833
58.545 8.498697
58.550 8.718329
58.555 8.700577
58.560 8.588933
58.565 8.635526
58.570 8.450233
58.575 8.995466
58.580 9.036502
58.585 9.047363
58.590 9.009067
58.595 8.859159
58.600 8.8613
58.605 9.010908
58.610 8.572619
58.615 8.424349
58.620 8.132059
58.625 8.144137
58.630 8.777943
58.635 8.604802
58.640 8.554571
58.645 8.748583
58.650 8.994816
58.655 9.49787
58.660 9.834102
58.665 9.410155
58.670 9.417891
58.675 9.18586
58.680 8.998305
58.685 9.127287
58.690 8.8569
58.695 8.997126
58.700 9.505808
58.705 9.730773
58.710 9.505198
58.715 9.277858
58.720 8.775599
58.725 8.931301
58.730 8.400462
58.735 8.011209
58.740 8.028157
58.745 8.466148
58.750 8.705283
58.755 9.005726
58.760 8.964194
58.765 9.093091
58.770 9.140622
58.775 8.517504
58.780 8.03626
58.785 7.713663
58.790 7.588698
58.795 7.681124
58.800 7.704475
58.805 7.814527
58.810 8.338468
58.815 8.728322
58.820 8.864248
58.825 9.244325
58.830 9.133668
58.835 8.804242
58.840 8.888511
58.845 8.797749
58.850 8.8801
58.855 9.087417
58.860 8.586363
58.865 8.298222
58.870 7.960718
58.875 7.795208
58.880 7.916589
58.885 7.872887
58.890 7.876239
58.895 8.054193
58.900 8.033638
58.905 8.083861
58.910 7.580617
58.915 7.675343
58.920 7.420985
58.925 6.904122
58.930 6.851104
58.935 6.978044
58.940 7.145521
58.945 7.645101
58.950 7.840762
58.955 7.796387
58.960 7.931577
58.965 8.017879
58.970 8.324826
58.975 8.372387
58.980 8.306463
58.985 8.27667
58.990 8.171559
58.995 8.30265
59.000 8.412484
59.005 8.462469
59.010 8.148431
59.015 8.120854
59.020 8.053406
59.025 8.388986
59.030 8.376338
59.035 8.190057
59.040 8.160761
59.045 8.602986
59.050 8.604403
59.055 8.438233
59.060 8.556445
59.065 8.723751
59.070 9.059626
59.075 8.776054
59.080 8.627995
59.085 8.378973
59.090 8.285261
59.095 8.348071
59.100 8.17541
59.105 7.863952
59.110 8.048718
59.115 7.889205
59.120 8.191463
59.125 8.684074
59.130 8.405572
59.135 8.253794
59.140 8.258604
59.145 8.150089
59.150 8.428438
59.155 8.161583
59.160 7.658962
59.165 7.731233
59.170 7.645475
59.175 7.371046
59.180 7.333508
59.185 7.166502
59.190 7.186767
59.195 7.387482
59.200 7.525764
59.205 7.518312
59.210 7.73315
59.215 7.468295
59.220 7.868757
59.225 7.998893
59.230 7.533322
59.235 7.295552
59.240 7.171238
59.245 7.072277
59.250 7.442147
59.255 7.243254
59.260 7.427664
59.265 7.891632
59.270 7.796444
59.275 8.138388
59.280 8.538022
59.285 8.89151
59.290 8.594311
59.295 8.73783
59.300 8.92986
59.305 9.363892
59.310 9.39302
59.315 9.078753
59.320 8.624271
59.325 8.679297
59.330 8.564085
59.335 8.677423
59.340 8.24575
59.345 7.915248
59.350 8.317114
59.355 8.516013
59.360 8.16643
59.365 7.862459
59.370 7.668824
59.375 8.325496
59.380 8.837168
59.385 8.509313
59.390 8.995685
59.395 9.224942
59.400 9.6038
59.405 9.338153
59.410 8.617784
59.415 8.243931
59.420 8.022068
59.425 7.91363
59.430 8.250804
59.435 8.340245
59.440 8.520014
59.445 8.8422
59.450 9.162737
59.455 9.393202
59.460 9.132168
59.465 8.803178
59.470 8.575126
59.475 8.830885
59.480 8.565449
59.485 8.577638
59.490 8.448403
59.495 8.183716
59.500 8.348758
59.505 8.592442
59.510 8.594587
59.515 8.831978
59.520 9.064692
59.525 9.00879
59.530 9.581327
59.535 9.633156
59.540 9.37675
59.545 9.67594
59.550 9.73798
59.555 9.797408
59.560 9.864346
59.565 9.474419
59.570 9.389285
59.575 9.562138
59.580 9.338608
59.585 8.929625
59.590 8.520525
59.595 8.40732
59.600 8.576962
59.605 8.521471
59.610 8.342158
59.615 8.408525
59.620 8.715987
59.625 9.110497
59.630 9.09154
59.635 8.713378
59.640 8.340908
59.645 7.911773
59.650 7.749107
59.655 7.47732
59.660 7.234596
59.665 7.451638
59.670 7.893548
59.675 8.338696
59.680 8.761896
59.685 8.664813
59.690 8.815655
59.695 8.818332
59.700 9.013204
59.705 9.014116
59.710 8.769716
59.715 8.802104
59.720 9.08558
59.725 9.161755
59.730 9.294353
59.735 9.294243
59.740 9.54355
59.745 9.823172
59.750 10.008009
59.755 10.054942
59.760 10.171224
59.765 10.459315
59.770 9.856194
59.775 9.455372
59.780 9.126873
59.785 9.058888
59.790 8.890643
59.795 8.798135
59.800 8.20982
59.805 8.432138
59.810 8.538123
59.815 8.371589
59.820 8.142576
59.825 7.788644
59.830 7.67659
59.835 7.944211
59.840 7.974242
59.845 8.134179
59.850 8.145948
59.855 8.094193
59.860 8.214211
59.865 8.118866
59.870 7.727756
59.875 7.386847
59.880 7.312298
59.885 7.271807
59.890 7.537752
59.895 7.755389
59.900 8.083275
59.905 8.666145
59.910 9.277946
59.915 9.366289
59.920 9.459012
59.925 9.432142
59.930 9.144996
59.935 8.728546
59.940 8.423276
59.945 8.128065
59.950 7.856071
59.955 8.019178
59.960 8.148949
59.965 8.24647
59.970 8.181664
59.975 8.232543
59.980 7.987006
59.985 8.048274
59.990 8.340689
59.995 8.538314
60.000 8.96299
60.005 9.240524
60.010 9.538604
60.015 9.826309
60.020 9.864777
60.025 8.992345
60.030 8.49212
60.035 8.322001
60.040 8.279134
60.045 8.011583
60.050 7.802749
60.055 7.913235
60.060 8.476079
60.065 8.569378
60.070 8.296007
60.075 8.274917
60.080 8.185964
60.085 8.137428
60.090 8.127294
60.095 7.971313
60.100 7.860828
60.105 8.004171
60.110 8.177665
60.115 8.035343
60.120 7.968392
60.125 7.882502
60.130 7.779348
60.135 7.873834
60.140 8.076772
60.145 8.093201
60.150 8.225007
60.155 8.234756
60.160 8.184444
60.165 8.552611
60.170 8.781816
60.175 8.430018
60.180 8.482632
60.185 8.460172
60.190 8.437384
60.195 8.8721
60.200 9.025857
60.205 8.6648
60.210 8.546647
60.215 8.227905
60.220 8.503243
60.225 8.57154
60.230 8.068629
60.235 7.626536
60.240 7.391634
60.245 7.542483
60.250 7.732619
60.255 8.233931
60.260 8.735259
60.265 9.385367
60.270 9.910095
60.275 10.310362
60.280 10.670556
60.285 10.73002
60.290 10.094412
60.295 9.583779
60.300 9.410045
60.305 8.920095
60.310 8.657204
60.315 8.299822
60.320 8.093333
60.325 8.201538
60.330 8.17553
60.335 8.011902
60.340 8.225427
60.345 8.50229
60.350 8.511879
60.355 8.576388
60.360 8.013496
60.365 7.852129
60.370 7.703671
60.375 7.386784
60.380 7.162472
60.385 7.612799
60.390 7.654392
60.395 8.230283
60.400 8.18987
60.405 7.801664
60.410 8.028049
60.415 7.885251
60.420 7.456305
60.425 7.705089
60.430 8.05455
60.435 8.463143
60.440 8.780932
60.445 9.166121
60.450 9.102013
60.455 8.855618
60.460 8.659927
60.465 8.241358
60.470 8.10661
60.475 8.115666
60.480 7.795645
60.485 8.492796
60.490 8.921679
60.495 9.279692
60.500 9.375013
60.505 9.137861
60.510 9.227141
60.515 9.004165
60.520 8.827534
60.525 8.586341
60.530 7.91883
60.535 8.02628
60.540 8.343518
60.545 8.379381
60.550 8.321909
60.555 8.101737
60.560 8.124561
60.565 8.315207
60.570 8.55985
60.575 8.50973
60.580 8.25961
60.585 8.541672
60.590 8.891987
60.595 9.182388
60.600 9.174652
60.605 8.830395
60.610 9.002492
60.615 9.227261
60.620 9.127617
60.625 8.908599
60.630 8.748566
60.635 8.65752
60.640 8.753033
60.645 9.137428
60.650 9.205827
60.655 9.024196
60.660 8.741378
60.665 8.418535
60.670 8.518923
60.675 8.399184
60.680 7.927755
60.685 8.164846
60.690 8.275705
60.695 8.259882
60.700 8.21139
60.705 8.210193
60.710 8.020863
60.715 7.745225
60.720 7.536335
60.725 7.404203
60.730 7.581038
60.735 7.985709
60.740 8.11095
60.745 8.185084
60.750 8.29873
60.755 8.307707
60.760 8.586832
60.765 8.554415
60.770 8.094568
60.775 8.243568
60.780 7.951355
60.785 7.804321
60.790 7.782248
60.795 7.850514
60.800 7.805976
60.805 7.89299
60.810 7.884969
60.815 8.458069
60.820 8.502531
60.825 8.353463
60.830 8.563396
60.835 8.727556
60.840 8.82693
60.845 8.686011
60.850 8.392104
60.855 8.495819
60.860 8.360396
60.865 8.039733
60.870 8.276897
60.875 8.181697
60.880 8.450878
60.885 8.798461
60.890 9.347025
60.895 9.358329
60.900 9.414629
60.905 9.315017
60.910 9.696059
60.915 9.551752
60.920 9.22353
60.925 8.424205
60.930 8.249329
60.935 7.893806
60.940 7.628627
60.945 7.150795
60.950 6.896432
60.955 7.067209
60.960 7.608518
60.965 7.715013
60.970 7.537002
60.975 7.472369
60.980 7.378546
60.985 7.283682
60.990 7.038548
60.995 6.51125
61.000 6.642954
61.005 7.202439
61.010 7.615956
61.015 8.261642
61.020 8.190427
61.025 8.413722
61.030 8.759141
61.035 8.580553
61.040 8.471882
61.045 8.298373
61.050 7.893909
61.055 8.314803
61.060 8.443682
61.065 8.556415
61.070 8.818475
61.075 8.765057
61.080 8.789863
61.085 8.338501
61.090 8.041009
61.095 7.697002
61.100 7.420861
61.105 7.194839
61.110 7.112485
61.115 7.305792
61.120 7.878918
61.125 8.101612
61.130 8.43897
61.135 8.753248
61.140 9.088415
61.145 9.281099
61.150 9.271581
61.155 9.18293
61.160 9.222888
61.165 9.296905
61.170 9.209663
61.175 9.27036
61.180 9.099807
61.185 8.725223
61.190 8.383862
61.195 8.411463
61.200 8.420122
61.205 8.283028
61.210 8.516166
61.215 9.034842
61.220 9.55844
61.225 9.676585
61.230 9.3967
61.235 9.185929
61.240 9.156532
61.245 8.861422
61.250 8.502853
61.255 8.161162
61.260 8.187069
61.265 7.942224
61.270 7.834798
61.275 7.57102
61.280 7.387961
61.285 7.176287
61.290 7.208594
61.295 7.503192
61.300 7.884823
61.305 8.093742
61.310 8.273545
61.315 8.050702
61.320 8.160228
61.325 7.98448
61.330 7.765161
61.335 7.922813
61.340 7.892755
61.345 8.000517
61.350 8.25556
61.355 8.239477
61.360 8.335613
61.365 8.22184
61.370 8.041654
61.375 8.170135
61.380 8.284182
61.385 8.400964
61.390 8.555676
61.395 8.728791
61.400 8.785968
61.405 8.832984
61.410 8.709198
61.415 8.483468
61.420 8.335738
61.425 8.211032
61.430 7.873862
61.435 8.025121
61.440 8.212886
61.445 7.982751
61.450 8.33207
61.455 8.595187
61.460 8.263216
61.465 8.497926
61.470 8.518211
61.475 8.512404
61.480 8.968178
61.485 8.352987
61.490 8.162327
61.495 8.670681
61.500 8.508338
61.505 8.326506
61.510 8.089355
61.515 7.941712
61.520 8.271887
61.525 8.474716
61.530 8.586095
61.535 8.675786
61.540 8.503486
61.545 8.561152
61.550 8.388625
61.555 8.69408
61.560 8.494881
61.565 8.221589
61.570 8.378217
61.575 8.532777
61.580 8.737861
61.585 8.817474
61.590 8.574172
61.595 8.544661
61.600 8.147329
61.605 8.326781
61.610 8.530227
61.615 8.224914
61.620 8.445184
61.625 8.582135
61.630 8.592762
61.635 9.223275
61.640 8.963634
61.645 8.622066
61.650 8.527187
61.655 8.231115
61.660 7.811637
61.665 7.579922
61.670 7.29816
61.675 7.266627
61.680 7.099751
61.685 6.922522
61.690 7.267591
61.695 7.55989
61.700 7.910393
61.705 8.090212
61.710 8.601301
61.715 9.218813
61.720 9.531973
61.725 9.539945
61.730 9.637016
61.735 9.182844
61.740 8.75242
61.745 8.4466
61.750 8.349738
61.755 8.782124
61.760 9.021431
61.765 9.395623
61.770 9.982824
61.775 9.991579
61.780 9.514004
61.785 9.306471
61.790 8.931929
61.795 8.40496
61.800 8.14167
61.805 8.174965
61.810 8.318611
61.815 8.70629
61.820 8.908413
61.825 9.075503
61.830 9.476541
61.835 9.150797
61.840 8.900167
61.845 9.114547
61.850 9.11699
61.855 9.035316
61.860 8.818918
61.865 8.732041
61.870 8.700389
61.875 9.023406
61.880 9.364984
61.885 9.154274
61.890 9.194942
61.895 9.322952
61.900 9.481965
61.905 9.51553
61.910 9.086304
61.915 8.837793
61.920 9.185767
61.925 9.532213
61.930 9.088559
61.935 9.36092
61.940 9.403231
61.945 9.304885
61.950 9.258677
61.955 9.005151
61.960 8.260857
61.965 8.334869
61.970 7.988317
61.975 8.44872
61.980 8.520035
61.985 8.352209
61.990 8.189002
61.995 8.320149
62.000 8.363573
62.005 8.50842
62.010 8.103542
62.015 8.15495
62.020 8.571513
62.025 8.938299
62.030 8.828663
62.035 9.010016
62.040 9.114049
62.045 9.202829
62.050 9.351071
62.055 9.11775
62.060 8.820863
62.065 8.424578
62.070 8.086339
62.075 7.672784
62.080 7.695933
62.085 7.414423
62.090 6.916022
62.095 6.865265
62.100 7.246443
62.105 7.475034
62.110 7.920206
62.115 7.97176
62.120 8.1699
62.125 8.463799
62.130 8.71861
62.135 8.976211
62.140 8.934928
62.145 8.865755
62.150 8.880081
62.155 8.885419
62.160 9.324895
62.165 9.835145
62.170 10.238687
62.175 10.608747
62.180 10.615118
62.185 10.48326
62.190 10.136783
62.195 9.785112
62.200 9.1773
62.205 8.532188
62.210 8.459017
62.215 8.249758
62.220 8.077589
62.225 7.883131
62.230 7.824759
62.235 7.938507
62.240 7.888487
62.245 7.792235
62.250 7.805763
62.255 8.227618
62.260 8.625077
62.265 8.710155
62.270 8.605455
62.275 8.947556
62.280 9.293406
62.285 9.429625
62.290 9.144627
62.295 9.162022
62.300 8.964778
62.305 9.157228
62.310 9.347836
62.315 8.76408
62.320 8.731553
62.325 8.850753
62.330 8.632511
62.335 8.823391
62.340 9.023847
62.345 8.836975
62.350 8.705294
62.355 8.529194
62.360 8.348272
62.365 8.696541
62.370 8.678137
62.375 8.530036
62.380 7.979203
62.385 8.536085
62.390 9.004517
62.395 9.18983
62.400 8.973981
62.405 9.026135
62.410 9.385005
62.415 9.775637
62.420 9.379313
62.425 9.367679
62.430 9.655674
62.435 9.599391
62.440 9.381693
62.445 9.059207
62.450 8.978681
62.455 8.97232
62.460 8.644292
62.465 8.437585
62.470 8.706981
62.475 8.886731
62.480 8.740911
62.485 8.873196
62.490 9.066686
62.495 9.349869
62.500 9.934492
62.505 9.954524
62.510 9.908278
62.515 9.847503
62.520 9.585805
62.525 9.874219
62.530 9.902909
62.535 9.394079
62.540 9.261485
62.545 9.504614
62.550 9.764235
62.555 10.184299
62.560 10.24176
62.565 10.345548
62.570 10.123695
62.575 10.170091
62.580 10.0751
62.585 9.898274
62.590 9.333472
62.595 8.774395
62.600 8.806726
62.605 8.956596
62.610 8.991418
62.615 8.838365
62.620 9.245889
62.625 9.42644
62.630 9.200109
62.635 8.979011
62.640 8.964193
62.645 9.267373
62.650 9.671973
62.655 9.980958
62.660 10.43459
62.665 10.856353
62.670 10.661072
62.675 10.46971
62.680 10.272094
62.685 9.961626
62.690 9.652456
62.695 9.583066
62.700 9.518852
62.705 9.846347
62.710 10.263627
62.715 10.549975
62.720 10.609485
62.725 10.601362
62.730 10.956563
62.735 10.94115
62.740 10.579584
62.745 10.367577
62.750 9.794762
62.755 9.574895
62.760 9.67416
62.765 9.831468
62.770 10.102646
62.775 10.238352
62.780 10.245555
62.785 10.695134
62.790 11.040028
62.795 10.47514
62.800 10.200076
62.805 9.95143
62.810 9.921168
62.815 9.997656
62.820 10.198786
62.825 9.708974
62.830 9.872301
62.835 9.703006
62.840 9.801023
62.845 10.204299
62.850 10.271431
62.855 10.301621
62.860 10.032667
62.865 9.669453
62.870 9.469536
62.875 9.533188
62.880 9.183418
62.885 8.567877
62.890 8.077091
62.895 8.32611
62.900 9.171105
62.905 9.586127
62.910 9.491074
62.915 9.8526
62.920 9.961666
62.925 10.318737
62.930 10.137451
62.935 9.666378
62.940 9.146379
62.945 8.898648
62.950 8.489697
62.955 8.537825
62.960 8.376515
62.965 8.342484
62.970 8.187631
62.975 8.847534
62.980 9.292319
62.985 9.586794
62.990 9.466031
62.995 10.004663
63.000 10.443773
63.005 10.389443
63.010 9.730938
63.015 9.202009
63.020 9.16844
63.025 8.985724
63.030 8.280011
63.035 7.84035
63.040 7.922759
63.045 8.333381
63.050 8.465648
63.055 8.555057
63.060 9.033866
63.065 9.468652
63.070 9.763254
63.075 9.497087
63.080 9.568366
63.085 9.773528
63.090 9.219851
63.095 9.013184
63.100 8.865109
63.105 9.057681
63.110 9.41765
63.115 9.491102
63.120 9.550148
63.125 9.958717
63.130 10.037925
63.135 9.884695
63.140 9.550048
63.145 9.285728
63.150 8.820203
63.155 8.947447
63.160 8.659684
63.165 8.731757
63.170 8.88344
63.175 8.870392
63.180 8.819657
63.185 8.742059
63.190 8.458458
63.195 8.764997
63.200 8.338494
63.205 8.076365
63.210 8.053813
63.215 8.126605
63.220 8.480173
63.225 8.492698
63.230 8.798695
63.235 9.013544
63.240 8.949711
63.245 8.734398
63.250 8.725169
63.255 8.809923
63.260 8.773786
63.265 8.516396
63.270 8.765386
63.275 8.993821
63.280 9.418083
63.285 9.347982
63.290 9.377208
63.295 9.46239
63.300 9.593269
63.305 9.484992
63.310 9.289729
63.315 9.484419
63.320 9.496217
63.325 9.100746
63.330 8.815112
63.335 8.552496
63.340 8.564018
63.345 8.714043
63.350 8.708709
63.355 8.979066
63.360 9.043289
63.365 9.303502
63.370 9.092951
63.375 8.796749
63.380 8.412465
63.385 8.087195
63.390 7.896279
63.395 7.959514
63.400 7.992924
63.405 8.549209
63.410 8.85648
63.415 8.95261
63.420 9.03124
63.425 9.246895
63.430 9.442817
63.435 9.427414
63.440 8.935297
63.445 8.906666
63.450 9.209044
63.455 9.195686
63.460 9.011875
63.465 8.705113
63.470 8.94934
63.475 9.046894
63.480 9.189949
63.485 9.207361
63.490 9.400119
63.495 9.323465
63.500 8.956714
63.505 8.481017
63.510 8.695144
63.515 8.759878
63.520 8.506552
63.525 8.364216
63.530 8.689737
63.535 8.817218
63.540 8.787692
63.545 8.671718
63.550 8.477769
63.555 8.619223
63.560 8.567581
63.565 8.33727
63.570 8.632271
63.575 8.622638
63.580 8.321682
63.585 8.408091
63.590 8.203556
63.595 8.278081
63.600 8.205311
63.605 8.075622
63.610 8.426198
63.615 8.915912
63.620 8.801879
63.625 8.745085
63.630 8.81208
63.635 9.164476
63.640 9.22955
63.645 9.207866
63.650 9.511305
63.655 9.629367
63.660 9.905523
63.665 9.947916
63.670 9.643375
63.675 9.210608
63.680 8.889248
63.685 8.397356
63.690 8.815129
63.695 8.871172
63.700 8.474306
63.705 8.479182
63.710 8.914454
63.715 8.769398
63.720 8.685314
63.725 8.389051
63.730 8.449054
63.735 8.956685
63.740 9.381444
63.745 9.607766
63.750 10.049779
63.755 9.924556
63.760 9.767551
63.765 9.100276
63.770 8.644447
63.775 8.647593
63.780 8.67434
63.785 8.345882
63.790 8.184683
63.795 8.317185
63.800 8.663795
63.805 8.670463
63.810 8.305893
63.815 8.292468
63.820 8.304381
63.825 8.416418
63.830 8.343293
63.835 8.257586
63.840 8.313695
63.845 8.527457
63.850 8.469351
63.855 8.888985
63.860 8.811412
63.865 8.990505
63.870 8.988984
63.875 9.495425
63.880 9.565146
63.885 9.479715
63.890 9.34738
63.895 9.286875
63.900 9.252028
63.905 9.183563
63.910 8.648678
63.915 8.22262
63.920 8.035167
63.925 8.178481
63.930 8.302846
63.935 8.243968
63.940 8.423377
63.945 8.678077
63.950 8.995429
63.955 9.171486
63.960 8.710979
63.965 8.840951
63.970 9.004114
63.975 8.846829
63.980 8.435266
63.985 8.57184
63.990 8.376801
63.995 8.208057
64.000 7.84201
64.005 7.928027
64.010 8.16345
64.015 8.609244
64.020 8.861244
64.025 9.146255
64.030 9.346101
64.035 9.374847
64.040 9.317583
64.045 9.426828
64.050 9.184377
64.055 8.736324
64.060 8.594155
64.065 8.919517
64.070 9.293616
64.075 9.160493
64.080 8.988423
64.085 9.315415
64.090 9.634717
64.095 9.752652
64.100 9.781054
64.105 9.437328
64.110 9.546613
64.115 9.364764
64.120 9.31215
64.125 9.118093
64.130 9.11496
64.135 9.052273
64.140 9.094039
64.145 9.215955
64.150 9.58346
64.155 9.495599
64.160 9.187312
64.165 9.061176
64.170 8.897102
64.175 8.899429
64.180 8.53226
64.185 7.972266
64.190 7.683617
64.195 7.511794
64.200 7.448421
64.205 7.749118
64.210 8.050336
64.215 8.07165
64.220 7.891883
64.225 7.795671
64.230 8.368751
64.235 8.272142
64.240 7.842049
64.245 7.854053
64.250 7.920931
64.255 8.463718
64.260 9.033807
64.265 9.157902
64.270 9.40425
64.275 9.763974
64.280 9.513224
64.285 9.435315
64.290 9.791023
64.295 10.063641
64.300 9.917936
64.305 9.712232
64.310 9.687277
64.315 10.2625
64.320 10.902787
64.325 10.463924
64.330 10.134352
64.335 9.883506
64.340 9.804595
64.345 9.979927
64.350 9.594366
64.355 9.143105
64.360 9.404245
64.365 9.054988
64.370 9.070092
64.375 9.362274
64.380 9.39695
64.385 9.687018
64.390 9.795597
64.395 9.311
64.400 9.456737
64.405 9.486424
64.410 9.637948
64.415 9.651413
64.420 9.452403
64.425 9.5319
64.430 9.843183
64.435 10.331132
64.440 11.101668
64.445 11.197318
64.450 11.244226
64.455 11.317529
64.460 11.326188
64.465 11.703443
64.470 11.50349
64.475 10.99899
64.480 10.426277
64.485 10.464035
64.490 10.402253
64.495 10.459514
64.500 10.202572
64.505 10.003937
64.510 10.089124
64.515 10.1773
64.520 10.010642
64.525 9.989748
64.530 9.707339
64.535 10.262384
64.540 10.520494
64.545 10.377629
64.550 10.508904
64.555 10.373538
64.560 10.570807
64.565 10.427414
64.570 9.928985
64.575 10.05758
64.580 10.461989
64.585 10.574718
64.590 10.478912
64.595 9.955194
64.600 9.893227
64.605 9.934455
64.610 9.955545
64.615 9.716596
64.620 9.68901
64.625 9.965655
64.630 10.769936
64.635 10.911895
64.640 10.542757
64.645 10.863606
64.650 11.473463
64.655 11.182461
64.660 11.419186
64.665 10.977006
64.670 11.056917
64.675 11.679687
64.680 11.52359
64.685 11.560144
64.690 11.876458
64.695 11.443861
64.700 11.395158
64.705 11.651334
64.710 11.414219
64.715 11.836885
64.720 11.948141
64.725 12.312701
64.730 12.665187
64.735 13.344286
64.740 13.546129
64.745 14.222359
64.750 14.17958
64.755 14.124513
64.760 14.193206
64.765 14.688632
64.770 14.592829
64.775 14.691645
64.780 14.283932
64.785 14.012396
64.790 13.933763
64.795 13.614403
64.800 13.155693
64.805 13.317032
64.810 14.123058
64.815 15.225015
64.820 15.641465
64.825 15.474861
64.830 16.02804
64.835 16.089001
64.840 16.145872
64.845 16.004999
64.850 16.415468
64.855 16.861183
64.860 18.044809
64.865 18.376116
64.870 18.891247
64.875 18.791538
64.880 19.410812
64.885 19.689512
64.890 19.389631
64.895 19.258059
64.900 19.496778
64.905 19.6653
64.910 19.924229
64.915 19.903521
64.920 20.050041
64.925 20.586058
64.930 20.844887
64.935 21.431311
64.940 21.632242
64.945 21.42589
64.950 21.689716
64.955 22.367952
64.960 22.729347
64.965 22.532955
64.970 22.298162
64.975 22.273291
64.980 22.783428
64.985 23.644089
64.990 23.936558
64.995 23.883974
65.000 24.689499
65.005 25.098711
65.010 25.589132
65.015 25.424589
65.020 25.941523
65.025 25.794893
65.030 25.400402
65.035 24.214611
65.040 23.943413
65.045 24.298931
65.050 24.484978
65.055 23.921534
65.060 24.598244
65.065 24.900469
65.070 25.054876
65.075 25.153257
65.080 24.46471
65.085 24.689466
65.090 24.953938
65.095 24.225668
65.100 24.686573
65.105 25.3016
65.110 24.831871
65.115 25.288477
65.120 25.149061
65.125 25.00745
65.130 24.959173
65.135 24.458378
65.140 24.012804
65.145 23.638798
65.150 23.571726
65.155 23.69838
65.160 24.196987
65.165 23.571947
65.170 22.728949
65.175 22.726946
65.180 22.562769
65.185 22.28573
65.190 21.736204
65.195 20.264965
65.200 21.09992
65.205 21.576681
65.210 21.062017
65.215 20.941862
65.220 20.178701
65.225 19.641031
65.230 19.111156
65.235 18.598825
65.240 18.26712
65.245 18.717966
65.250 18.659378
65.255 18.838654
65.260 19.289005
65.265 18.690319
65.270 18.126131
65.275 18.043287
65.280 18.261959
65.285 18.378677
65.290 18.096806
65.295 18.011145
65.300 17.804853
65.305 17.670803
65.310 16.708441
65.315 16.005295
65.320 15.847482
65.325 15.801328
65.330 15.333946
65.335 15.217959
65.340 15.179452
65.345 15.343541
65.350 15.188989
65.355 14.906174
65.360 14.564494
65.365 13.996854
65.370 13.22141
65.375 12.993902
65.380 12.816214
65.385 12.748781
65.390 12.559596
65.395 12.619871
65.400 12.631989
65.405 12.173631
65.410 12.025708
65.415 11.977747
65.420 11.885627
65.425 12.066182
65.430 12.004733
65.435 12.47228
65.440 12.634367
65.445 12.853828
65.450 12.561901
65.455 12.447577
65.460 12.301682
65.465 12.092975
65.470 11.577987
65.475 11.28548
65.480 10.959553
65.485 11.222543
65.490 11.341538
65.495 11.091603
65.500 10.953004
65.505 10.712623
65.510 10.386756
65.515 10.519381
65.520 10.431328
65.525 10.480445
65.530 10.347639
65.535 10.690169
65.540 10.999019
65.545 11.03849
65.550 10.983252
65.555 10.965688
65.560 10.939462
65.565 11.271879
65.570 10.979022
65.575 10.924692
65.580 10.953861
65.585 11.111389
65.590 10.965653
65.595 11.043842
65.600 10.99164
65.605 11.003771
65.610 11.436387
65.615 11.269889
65.620 10.542454
65.625 10.271577
65.630 10.027386
65.635 9.891414
65.640 9.731917
65.645 9.240581
65.650 9.334069
65.655 9.785027
65.660 10.227143
65.665 10.73122
65.670 10.93457
65.675 11.159899
65.680 11.066789
65.685 10.985062
65.690 10.938122
65.695 10.372008
65.700 9.857881
65.705 9.731206
65.710 9.375696
65.715 9.24554
65.720 8.853931
65.725 9.00931
65.730 9.270683
65.735 9.610881
65.740 9.533884
65.745 9.770597
65.750 9.566866
65.755 9.526554
65.760 9.680305
65.765 9.994466
65.770 9.622316
65.775 9.425784
65.780 8.912845
65.785 9.232043
65.790 9.299397
65.795 8.779596
65.800 8.715634
65.805 8.876636
65.810 9.010436
65.815 9.404042
65.820 9.607529
65.825 10.036955
65.830 10.148306
65.835 9.786774
65.840 9.868107
65.845 9.81132
65.850 9.920968
65.855 9.771111
65.860 9.323082
65.865 9.242835
65.870 9.209999
65.875 8.963307
65.880 9.035647
65.885 8.734476
65.890 8.60157
65.895 8.626098
65.900 9.103142
65.905 9.11197
65.910 9.20241
65.915 8.980626
65.920 9.026021
65.925 9.335593
65.930 9.312783
65.935 9.000671
65.940 9.123644
65.945 9.533253
65.950 9.685525
65.955 9.718763
65.960 9.653773
65.965 9.42617
65.970 9.586872
65.975 9.65655
65.980 9.058745
65.985 8.941863
65.990 8.748779
65.995 8.473628
66.000 8.644534
66.005 8.337708
66.010 8.119883
66.015 8.084899
66.020 8.235451
66.025 8.792142
66.030 8.923994
66.035 8.715384
66.040 9.112761
66.045 9.110179
66.050 9.429973
66.055 9.245696
66.060 8.530446
66.065 8.477037
66.070 8.712026
66.075 8.299325
66.080 8.253744
66.085 8.445537
66.090 8.580823
66.095 8.697661
66.100 8.412915
66.105 8.22411
66.110 8.700794
66.115 8.991457
66.120 8.926059
66.125 8.833056
66.130 9.054444
66.135 9.766754
66.140 9.580514
66.145 9.169358
66.150 9.041714
66.155 9.102683
66.160 8.997844
66.165 8.858516
66.170 8.318991
66.175 8.588485
66.180 8.386414
66.185 8.195167
66.190 8.055732
66.195 8.173656
66.200 8.413685
66.205 8.649124
66.210 8.406389
66.215 8.455968
66.220 8.665451
66.225 8.716691
66.230 8.685206
66.235 8.436921
66.240 8.385592
66.245 8.411687
66.250 8.219337
66.255 7.861082
66.260 7.945454
66.265 8.103897
66.270 8.2618
66.275 8.355004
66.280 8.796741
66.285 9.016524
66.290 9.438749
66.295 9.331434
66.300 9.076488
66.305 8.920468
66.310 9.102312
66.315 9.122824
66.320 9.113282
66.325 8.579284
66.330 8.795082
66.335 8.815213
66.340 8.72473
66.345 8.923237
66.350 8.732074
66.355 8.4907
66.360 8.459422
66.365 8.367492
66.370 8.667802
66.375 8.827945
66.380 8.48999
66.385 8.372575
66.390 8.657812
66.395 8.959176
66.400 8.946794
66.405 9.094704
66.410 9.046612
66.415 8.692718
66.420 9.038217
66.425 9.182288
66.430 9.190835
66.435 8.8665
66.440 8.762354
66.445 8.723964
66.450 9.146142
66.455 9.195203
66.460 9.014455
66.465 8.991033
66.470 9.372666
66.475 9.1893
66.480 9.16165
66.485 8.93376
66.490 8.969216
66.495 8.796872
66.500 8.60244
66.505 8.418274
66.510 8.361366
66.515 8.446216
66.520 8.672473
66.525 8.97857
66.530 9.075108
66.535 9.080735
66.540 9.120964
66.545 9.184739
66.550 8.938583
66.555 8.764646
66.560 8.568668
66.565 8.580425
66.570 8.846262
66.575 8.833966
66.580 8.850301
66.585 9.271885
66.590 9.398498
66.595 9.209295
66.600 9.213154
66.605 8.918101
66.610 8.937648
66.615 8.891414
66.620 8.669662
66.625 8.853304
66.630 8.87562
66.635 8.678328
66.640 8.591702
66.645 8.161659
66.650 7.995973
66.655 8.029261
66.660 7.724199
66.665 7.91953
66.670 8.244487
66.675 8.057593
66.680 8.340351
66.685 8.760915
66.690 8.562303
66.695 8.941351
66.700 9.053555
66.705 9.008525
66.710 9.293526
66.715 9.145267
66.720 8.620742
66.725 9.112661
66.730 9.280156
66.735 9.035113
66.740 8.942434
66.745 8.703545
66.750 8.966567
66.755 9.093004
66.760 8.355527
66.765 7.701744
66.770 7.700948
66.775 7.749948
66.780 7.743897
66.785 7.492572
66.790 7.71416
66.795 7.953235
66.800 8.160805
66.805 8.139947
66.810 8.723702
66.815 9.190342
66.820 8.91503
66.825 8.638638
66.830 8.31087
66.835 8.208306
66.840 8.436971
66.845 8.212605
66.850 8.118527
66.855 8.064957
66.860 8.615663
66.865 8.579159
66.870 8.903359
66.875 8.550522
66.880 8.634146
66.885 8.741972
66.890 8.912996
66.895 8.814366
66.900 9.137802
66.905 8.94665
66.910 9.099792
66.915 8.833065
66.920 8.671416
66.925 8.847809
66.930 9.038819
66.935 8.76781
66.940 8.379784
66.945 8.090962
66.950 8.150528
66.955 8.024999
66.960 8.06902
66.965 8.373972
66.970 8.665174
66.975 9.11648
66.980 9.487924
66.985 9.796423
66.990 9.974975
66.995 9.867729
67.000 9.701539
67.005 10.104699
67.010 9.827525
67.015 9.620421
67.020 9.390873
67.025 9.610577
67.030 9.436712
67.035 9.128514
67.040 8.899075
67.045 8.839674
67.050 8.640698
67.055 8.396996
67.060 7.998323
67.065 7.870883
67.070 8.115395
67.075 7.991752
67.080 8.335293
67.085 8.253574
67.090 8.254436
67.095 8.436893
67.100 8.657599
67.105 8.493901
67.110 8.321292
67.115 7.863967
67.120 8.405887
67.125 8.509087
67.130 8.563493
67.135 8.517631
67.140 8.759166
67.145 8.674988
67.150 9.018951
67.155 8.995186
67.160 9.037235
67.165 8.889619
67.170 8.497415
67.175 8.436929
67.180 8.892725
67.185 8.838994
67.190 8.409716
67.195 8.21552
67.200 8.354491
67.205 8.614193
67.210 8.806882
67.215 8.867606
67.220 9.307058
67.225 10.013848
67.230 10.427884
67.235 10.412515
67.240 10.286592
67.245 9.670585
67.250 9.39787
67.255 8.992232
67.260 8.772627
67.265 8.547521
67.270 8.417667
67.275 8.350088
67.280 8.540643
67.285 8.406214
67.290 7.78015
67.295 7.153033
67.300 6.837427
67.305 7.136855
67.310 7.287445
67.315 7.571064
67.320 8.216426
67.325 8.539462
67.330 8.866695
67.335 9.273068
67.340 9.385472
67.345 8.964953
67.350 8.487648
67.355 8.371878
67.360 8.487529
67.365 8.744012
67.370 8.275966
67.375 8.033727
67.380 8.246406
67.385 8.231036
67.390 8.248574
67.395 8.030987
67.400 7.570454
67.405 7.746716
67.410 8.111758
67.415 8.322732
67.420 8.49299
67.425 8.29841
67.430 8.708439
67.435 9.133939
67.440 9.141088
67.445 9.097407
67.450 8.999984
67.455 9.086987
67.460 9.324345
67.465 9.235557
67.470 9.18904
67.475 8.939672
67.480 8.680659
67.485 9.106917
67.490 8.94258
67.495 9.085073
67.500 8.917861
67.505 8.922113
67.510 9.007565
67.515 9.222514
67.520 8.800347
67.525 8.78435
67.530 8.807331
67.535 9.126674
67.540 8.993443
67.545 8.858549
67.550 8.652812
67.555 8.426508
67.560 8.223707
67.565 7.804247
67.570 7.91482
67.575 8.17568
67.580 8.221377
67.585 8.219341
67.590 8.054072
67.595 7.743369
67.600 7.406551
67.605 7.430948
67.610 7.594926
67.615 8.084854
67.620 8.455503
67.625 9.174032
67.630 9.961803
67.635 10.023121
67.640 9.75831
67.645 9.42535
67.650 8.993064
67.655 8.982516
67.660 8.496458
67.665 8.377427
67.670 8.750626
67.675 9.132142
67.680 9.287922
67.685 9.434436
67.690 9.590728
67.695 10.163882
67.700 10.317307
67.705 10.029565
67.710 9.814271
67.715 9.638247
67.720 9.405443
67.725 9.309958
67.730 9.001301
67.735 8.995746
67.740 9.094134
67.745 9.148453
67.750 9.284304
67.755 9.141611
67.760 8.657269
67.765 8.737715
67.770 8.796694
67.775 9.21322
67.780 9.329098
67.785 9.577622
67.790 9.728779
67.795 9.843404
67.800 9.205877
67.805 9.074467
67.810 8.707805
67.815 8.683315
67.820 8.726667
67.825 8.496291
67.830 8.285879
67.835 8.91047
67.840 9.161015
67.845 9.056893
67.850 8.789016
67.855 9.035576
67.860 9.806892
67.865 10.32076
67.870 10.07779
67.875 10.082006
67.880 10.571585
67.885 10.800652
67.890 10.805724
67.895 10.766807
67.900 10.787716
67.905 10.913031
67.910 10.495739
67.915 10.372165
67.920 10.433503
67.925 10.139831
67.930 10.175016
67.935 10.013166
67.940 10.031285
67.945 9.957623
67.950 9.63586
67.955 9.857748
67.960 10.113416
67.965 10.071372
67.970 10.194216
67.975 10.24052
67.980 10.391085
67.985 10.275993
67.990 9.578182
67.995 9.192007
68.000 9.131275
68.005 9.361022
68.010 9.42137
68.015 9.437334
68.020 9.550149
68.025 9.926629
68.030 9.851525
68.035 9.713811
68.040 9.424302
68.045 9.019153
68.050 8.856669
68.055 8.777444
68.060 8.564801
68.065 8.709383
68.070 8.348495
68.075 8.377485
68.080 8.632662
68.085 8.928406
68.090 9.221936
68.095 9.462517
68.100 9.163355
68.105 9.967482
68.110 10.036893
68.115 9.949334
68.120 9.823122
68.125 9.574473
68.130 9.408792
68.135 9.640242
68.140 8.982599
68.145 8.77492
68.150 8.96759
68.155 8.725171
68.160 8.564979
68.165 8.279376
68.170 7.922089
68.175 7.893297
68.180 7.936982
68.185 8.005156
68.190 8.233017
68.195 8.655605
68.200 8.870517
68.205 9.011875
68.210 9.019588
68.215 8.858711
68.220 8.497566
68.225 8.059861
68.230 7.728274
68.235 7.790135
68.240 7.815816
68.245 8.612423
68.250 8.442239
68.255 8.473611
68.260 8.515599
68.265 8.817991
68.270 8.482602
68.275 8.671284
68.280 7.874949
68.285 8.331408
68.290 8.471104
68.295 8.514565
68.300 8.201263
68.305 8.31407
68.310 8.373497
68.315 8.655151
68.320 8.324435
68.325 8.286228
68.330 8.126916
68.335 8.21944
68.340 8.395432
68.345 8.149044
68.350 7.963584
68.355 8.039684
68.360 8.011577
68.365 8.148532
68.370 8.370993
68.375 8.788329
68.380 8.882878
68.385 9.080496
68.390 9.134531
68.395 9.385757
68.400 9.269361
68.405 9.147791
68.410 8.675834
68.415 8.54026
68.420 8.671778
68.425 8.83137
68.430 8.797357
68.435 8.967917
68.440 9.144588
68.445 9.248504
68.450 9.304925
68.455 9.334039
68.460 9.394706
68.465 9.528765
68.470 9.74363
68.475 9.550751
68.480 9.334076
68.485 9.257339
68.490 9.408096
68.495 9.071154
68.500 8.901909
68.505 8.621776
68.510 8.464086
68.515 8.569286
68.520 8.529584
68.525 8.250292
68.530 8.332221
68.535 8.089457
68.540 8.330253
68.545 8.552255
68.550 8.370813
68.555 8.398982
68.560 8.511451
68.565 8.47228
68.570 8.602283
68.575 8.313354
68.580 8.45568
68.585 8.708976
68.590 8.758135
68.595 8.612602
68.600 8.486923
68.605 8.534019
68.610 8.893718
68.615 9.122556
68.620 9.179017
68.625 9.426672
68.630 9.454844
68.635 9.253199
68.640 8.973097
68.645 8.59881
68.650 8.406165
68.655 8.182985
68.660 7.909741
68.665 8.243965
68.670 8.867989
68.675 9.010297
68.680 9.067447
68.685 8.995861
68.690 9.231303
68.695 9.098732
68.700 8.663802
68.705 8.234485
68.710 8.32474
68.715 8.176907
68.720 8.053838
68.725 7.929891
68.730 7.871066
68.735 7.994544
68.740 8.037387
68.745 7.697684
68.750 7.551754
68.755 7.448581
68.760 7.929808
68.765 8.457232
68.770 8.722974
68.775 8.864768
68.780 9.365593
68.785 9.338923
68.790 9.313381
68.795 8.595292
68.800 8.32474
68.805 8.426245
68.810 8.410308
68.815 8.403637
68.820 8.632348
68.825 8.902357
68.830 9.002899
68.835 8.808188
68.840 8.993674
68.845 9.094126
68.850 9.054491
68.855 8.814585
68.860 8.735526
68.865 8.639317
68.870 8.114792
68.875 7.815347
68.880 7.551206
68.885 7.489315
68.890 7.821414
68.895 8.099573
68.900 8.224092
68.905 9.062424
68.910 9.196324
68.915 9.43305
68.920 9.491023
68.925 9.124739
68.930 8.921097
68.935 9.198372
68.940 8.687833
68.945 8.88783
68.950 8.522356
68.955 8.730733
68.960 9.15239
68.965 9.992082
68.970 10.328899
68.975 10.836299
68.980 11.03428
68.985 11.479783
68.990 11.754667
68.995 11.353035
69.000 10.461479
69.005 9.645957
69.010 9.204458
69.015 9.061927
69.020 8.590483
69.025 8.251843
69.030 8.27227
69.035 8.610555
69.040 9.081692
69.045 9.134664
69.050 9.08112
69.055 9.733205
69.060 10.106299
69.065 10.352865
69.070 10.241304
69.075 10.291518
69.080 10.356424
69.085 10.665183
69.090 9.999113
69.095 9.724232
69.100 10.067845
69.105 10.68434
69.110 10.577147
69.115 10.463562
69.120 10.47553
69.125 10.481876
69.130 9.937329
69.135 9.011029
69.140 8.226246
69.145 8.078587
69.150 8.220651
69.155 8.078252
69.160 8.153803
69.165 8.472046
69.170 8.905027
69.175 9.124641
69.180 9.317389
69.185 8.963334
69.190 9.030593
69.195 8.697772
69.200 8.380021
69.205 8.231668
69.210 8.591098
69.215 8.576526
69.220 8.77376
69.225 8.830817
69.230 9.306478
69.235 9.744216
69.240 10.397645
69.245 10.637453
69.250 10.603707
69.255 10.658684
69.260 11.10214
69.265 10.880623
69.270 10.571294
69.275 9.981745
69.280 9.450241
69.285 9.213943
69.290 8.776034
69.295 9.149583
69.300 9.464939
69.305 9.480669
69.310 9.515021
69.315 9.23345
69.320 8.995605
69.325 9.094019
69.330 8.454565
69.335 8.315049
69.340 8.519975
69.345 8.728452
69.350 8.816652
69.355 9.173491
69.360 9.039324
69.365 9.030925
69.370 9.023982
69.375 9.056003
69.380 8.757278
69.385 8.834805
69.390 8.851614
69.395 8.915586
69.400 8.88827
69.405 8.671067
69.410 8.34351
69.415 7.744149
69.420 7.721878
69.425 7.64739
69.430 7.627553
69.435 7.706921
69.440 7.924842
69.445 8.349438
69.450 8.894403
69.455 8.929554
69.460 8.810987
69.465 8.839786
69.470 8.661841
69.475 8.246322
69.480 7.985267
69.485 8.192739
69.490 8.221712
69.495 7.912221
69.500 7.609473
69.505 7.286477
69.510 7.410091
69.515 7.405414
69.520 7.636134
69.525 7.752029
69.530 8.290505
69.535 8.877514
69.540 9.335072
69.545 9.144275
69.550 8.658086
69.555 8.396134
69.560 8.629555
69.565 8.276609
69.570 8.304885
69.575 8.23169
69.580 8.019943
69.585 8.230262
69.590 7.897391
69.595 7.702663
69.600 7.888361
69.605 7.849183
69.610 8.09608
69.615 8.643856
69.620 8.763477
69.625 8.885203
69.630 8.580099
69.635 8.227035
69.640 8.233137
69.645 7.889711
69.650 7.770249
69.655 7.880784
69.660 8.08092
69.665 8.622194
69.670 8.499063
69.675 8.630454
69.680 8.785716
69.685 8.737488
69.690 8.487505
69.695 8.160773
69.700 8.029242
69.705 8.241642
69.710 8.108615
69.715 8.328204
69.720 8.530817
69.725 8.619892
69.730 8.833899
69.735 8.757483
69.740 8.823084
69.745 8.540365
69.750 8.123559
69.755 8.181109
69.760 8.169792
69.765 8.021955
69.770 7.900944
69.775 7.55436
69.780 7.68553
69.785 7.73473
69.790 7.372099
69.795 7.416987
69.800 7.938633
69.805 8.009881
69.810 8.271629
69.815 8.583026
69.820 8.949095
69.825 9.296595
69.830 8.885588
69.835 8.707277
69.840 8.879878
69.845 8.764349
69.850 8.830153
69.855 8.799453
69.860 8.869056
69.865 9.452293
69.870 9.32794
69.875 9.42478
69.880 9.582624
69.885 9.344264
69.890 9.218851
69.895 8.670999
69.900 8.518826
69.905 8.825924
69.910 8.802524
69.915 8.865175
69.920 8.935602
69.925 8.913125
69.930 9.637055
69.935 9.651222
69.940 9.540692
69.945 9.368005
69.950 9.194352
69.955 9.37817
69.960 9.400239
69.965 8.682438
69.970 8.427098
69.975 8.778772
69.980 9.230785
69.985 9.384885
69.990 9.366069
69.995 9.619042
70.000 9.85972
70.005 9.642751
70.010 8.94224
70.015 8.476348
70.020 8.138282
70.025 8.015392
70.030 8.138138
70.035 8.506157
70.040 8.443473
70.045 8.578522
70.050 8.533126
70.055 8.777757
70.060 8.713881
70.065 8.489882
70.070 8.86417
70.075 8.941265
70.080 9.219139
70.085 9.592111
70.090 9.629749
70.095 9.601547
70.100 9.902768
70.105 9.604442
70.110 9.465849
70.115 9.206431
70.120 8.775957
70.125 8.783829
70.130 8.758856
70.135 8.22223
70.140 8.226315
70.145 8.529595
70.150 8.893257
70.155 9.493414
70.160 9.71861
70.165 9.413518
70.170 9.648521
70.175 9.925514
70.180 9.413363
70.185 9.432487
70.190 9.199487
70.195 9.186778
70.200 9.0773
70.205 8.942549
70.210 9.1083
70.215 9.134516
70.220 8.669553
70.225 8.10755
70.230 8.301206
70.235 8.837689
70.240 9.207913
70.245 10.02425
70.250 10.069036
70.255 10.354781
70.260 10.642058
70.265 10.420159
70.270 10.386779
70.275 10.070894
70.280 9.762699
70.285 9.640903
70.290 9.717276
70.295 9.695666
70.300 9.470585
70.305 9.170161
70.310 8.674412
70.315 8.603395
70.320 8.888523
70.325 8.904804
70.330 8.81361
70.335 9.148592
70.340 9.206637
70.345 9.069501
70.350 8.545372
70.355 8.288936
70.360 8.264594
70.365 8.624104
70.370 8.563145
70.375 8.772451
70.380 9.171795
70.385 9.857271
70.390 9.795205
70.395 9.991553
70.400 9.845942
70.405 9.709194
70.410 9.813041
70.415 9.48048
70.420 9.599602
70.425 9.676199
70.430 9.459435
70.435 9.420255
70.440 9.768425
70.445 10.013632
70.450 9.765623
70.455 9.821099
70.460 10.027218
70.465 10.213568
70.470 10.088321
70.475 9.914137
70.480 9.461831
70.485 9.542866
70.490 9.246284
70.495 9.071401
70.500 9.233662
70.505 9.388234
70.510 9.16204
70.515 9.175857
70.520 9.232961
70.525 9.139065
70.530 9.103595
70.535 8.810893
70.540 8.986478
70.545 9.54801
70.550 9.40591
70.555 9.668401
70.560 10.221155
70.565 10.898956
70.570 10.588602
70.575 10.447208
70.580 9.918792
70.585 9.799196
70.590 9.20168
70.595 8.468645
70.600 8.137671
70.605 8.325984
70.610 8.60188
70.615 8.913304
70.620 9.265784
70.625 9.833633
70.630 10.046709
70.635 10.289969
70.640 10.188337
70.645 10.287416
70.650 10.823924
70.655 11.000054
70.660 10.927908
70.665 10.646931
70.670 10.563852
70.675 10.363119
70.680 9.999925
70.685 9.487461
70.690 9.133961
70.695 8.899958
70.700 8.672426
70.705 8.490499
70.710 8.43831
70.715 8.368748
70.720 8.220195
70.725 7.803547
70.730 7.90162
70.735 8.249679
70.740 8.47738
70.745 8.436872
70.750 8.700719
70.755 9.088173
70.760 9.720186
70.765 9.736235
70.770 9.377186
70.775 9.373685
70.780 9.500661
70.785 9.242269
70.790 9.029949
70.795 8.453543
70.800 8.464212
70.805 8.388126
70.810 8.477971
70.815 8.393487
70.820 8.786014
70.825 9.088018
70.830 9.069488
70.835 9.451629
70.840 9.191188
70.845 8.744207
70.850 8.888584
70.855 8.493395
70.860 8.516101
70.865 8.797741
70.870 8.696139
70.875 9.05903
70.880 9.32497
70.885 9.245872
70.890 9.491215
70.895 9.147952
70.900 8.677418
70.905 8.669005
70.910 8.324248
70.915 8.113958
70.920 8.222293
70.925 8.226521
70.930 8.593088
70.935 8.812381
70.940 8.993784
70.945 9.173208
70.950 9.021559
70.955 8.591144
70.960 8.498371
70.965 8.54296
70.970 8.708069
70.975 8.677185
70.980 8.732285
70.985 8.669554
70.990 9.033972
70.995 8.894609
71.000 8.745779
71.005 8.60072
71.010 8.612628
71.015 8.609531
71.020 8.638735
71.025 8.722793
71.030 8.563799
71.035 8.578449
71.040 8.554926
71.045 8.347657
71.050 8.333112
71.055 7.865458
71.060 7.599255
71.065 7.612387
71.070 7.578524
71.075 7.405107
71.080 7.772151
71.085 7.845446
71.090 8.049861
71.095 8.020888
71.100 7.910968
71.105 7.662631
71.110 7.834003
71.115 7.688963
71.120 7.907911
71.125 8.024841
71.130 8.174499
71.135 8.439702
71.140 8.279441
71.145 8.181073
71.150 8.118637
71.155 7.836
71.160 8.020938
71.165 7.995255
71.170 8.235344
71.175 8.524542
71.180 8.534062
71.185 8.605977
71.190 8.457928
71.195 8.579939
71.200 8.793385
71.205 8.988486
71.210 9.050463
71.215 8.567147
71.220 8.44288
71.225 8.664287
71.230 7.98714
71.235 7.647199
71.240 7.611207
71.245 7.992538
71.250 8.766703
71.255 8.922787
71.260 8.998375
71.265 9.665016
71.270 9.925042
71.275 9.845015
71.280 9.702252
71.285 9.590227
71.290 9.561969
71.295 9.105241
71.300 8.808199
71.305 8.629831
71.310 8.355154
71.315 7.891233
71.320 7.779088
71.325 8.146287
71.330 8.010324
71.335 8.241349
71.340 8.27612
71.345 8.427775
71.350 8.20786
71.355 8.230143
71.360 8.100125
71.365 8.265556
71.370 8.422025
71.375 8.204789
71.380 8.372581
71.385 8.740746
71.390 8.545535
71.395 8.589149
71.400 8.660587
71.405 8.489028
71.410 8.854157
71.415 8.82464
71.420 8.889517
71.425 8.96751
71.430 8.738738
71.435 8.893954
71.440 8.505738
71.445 8.122007
71.450 7.860569
71.455 7.990827
71.460 7.955797
71.465 7.77551
71.470 7.636483
71.475 8.022386
71.480 8.37637
71.485 8.588267
71.490 8.302871
71.495 8.781824
71.500 9.28639
71.505 9.377032
71.510 9.408772
71.515 9.041687
71.520 8.855468
71.525 8.773899
71.530 8.413037
71.535 8.148552
71.540 8.197351
71.545 8.180067
71.550 8.546844
71.555 8.499688
71.560 8.838118
71.565 8.951657
71.570 8.707952
71.575 8.649058
71.580 8.635369
71.585 8.633502
71.590 8.618874
71.595 8.934372
71.600 8.898929
71.605 8.849799
71.610 8.717959
71.615 8.841463
71.620 9.101326
71.625 8.777984
71.630 8.184486
71.635 8.309882
71.640 8.621282
71.645 8.624002
71.650 8.659144
71.655 8.459514
71.660 8.817075
71.665 9.139435
71.670 9.185583
71.675 9.11278
71.680 8.987432
71.685 9.026081
71.690 9.167422
71.695 9.11464
71.700 8.994751
71.705 9.185008
71.710 9.334518
71.715 9.415054
71.720 9.464555
71.725 9.198456
71.730 9.248039
71.735 9.293246
71.740 9.164028
71.745 9.517566
71.750 9.631173
71.755 9.657935
71.760 9.504775
71.765 9.648779
71.770 9.479278
71.775 9.384915
71.780 9.253714
71.785 9.094483
71.790 8.958368
71.795 8.712664
71.800 8.5851
71.805 8.343511
71.810 7.961327
71.815 7.902226
71.820 8.341065
71.825 8.296258
71.830 8.240057
71.835 8.119482
71.840 8.75939
71.845 9.05823
71.850 8.681979
71.855 8.208302
71.860 8.302308
71.865 8.792645
71.870 8.526405
71.875 8.200379
71.880 7.928148
71.885 7.956144
71.890 8.091027
71.895 8.118111
71.900 8.156438
71.905 8.539898
71.910 9.104536
71.915 9.44733
71.920 9.440605
71.925 9.516415
71.930 9.637938
71.935 9.54516
71.940 9.405762
71.945 9.066907
71.950 8.964182
71.955 9.026579
71.960 9.137693
71.965 8.692906
71.970 8.255877
71.975 7.926251
71.980 8.210817
71.985 8.485839
71.990 8.526763
71.995 8.684681
72.000 8.885213
72.005 8.976896
72.010 9.264684
72.015 9.381049
72.020 9.349534
72.025 9.001413
72.030 8.813744
72.035 9.159994
72.040 9.378965
72.045 8.914196
72.050 8.396891
72.055 8.357279
72.060 8.859197
72.065 9.074512
72.070 9.0267
72.075 8.728902
72.080 8.865328
72.085 9.076492
72.090 9.334926
72.095 8.910106
72.100 8.76507
72.105 8.750995
72.110 8.950191
72.115 9.161396
72.120 9.343283
72.125 9.150891
72.130 9.54963
72.135 9.540941
72.140 9.888269
72.145 9.456148
72.150 8.813924
72.155 8.688912
72.160 8.53103
72.165 8.510076
72.170 8.484209
72.175 8.260108
72.180 8.681494
72.185 8.647169
72.190 8.857656
72.195 9.113491
72.200 9.092345
72.205 9.056635
72.210 9.327271
72.215 9.467608
72.220 9.588826
72.225 9.630724
72.230 9.59987
72.235 9.508194
72.240 9.71283
72.245 9.393427
72.250 9.403425
72.255 9.130122
72.260 8.984054
72.265 8.935899
72.270 8.892671
72.275 8.854224
72.280 8.951193
72.285 8.888818
72.290 9.38347
72.295 9.729766
72.300 9.626487
72.305 10.001692
72.310 10.135542
72.315 10.506398
72.320 10.466466
72.325 9.998549
72.330 9.438107
72.335 9.475758
72.340 8.973377
72.345 8.856302
72.350 8.72543
72.355 8.436641
72.360 8.864178
72.365 9.072102
72.370 9.221498
72.375 9.662111
72.380 9.915267
72.385 10.693383
72.390 11.013103
72.395 10.836283
72.400 10.682302
72.405 10.615973
72.410 10.359464
72.415 10.096747
72.420 9.516064
72.425 9.166945
72.430 8.834606
72.435 9.167535
72.440 9.272949
72.445 9.720752
72.450 9.784047
72.455 9.428082
72.460 9.770229
72.465 10.119198
72.470 9.57585
72.475 9.268259
72.480 8.967471
72.485 8.723788
72.490 8.65696
72.495 8.540619
72.500 8.828743
72.505 9.067807
72.510 8.986877
72.515 9.137972
72.520 9.689976
72.525 10.253606
72.530 9.645178
72.535 9.548716
72.540 9.256774
72.545 9.117981
72.550 8.9385
72.555 8.323709
72.560 8.666066
72.565 9.087615
72.570 9.159131
72.575 9.1482
72.580 9.519026
72.585 9.862532
72.590 9.696021
72.595 9.495901
72.600 9.456518
72.605 9.487193
72.610 9.032282
72.615 8.579611
72.620 8.701181
72.625 8.667005
72.630 8.799747
72.635 8.859221
72.640 8.838251
72.645 8.892183
72.650 8.747915
72.655 8.723472
72.660 8.975621
72.665 9.003656
72.670 9.140376
72.675 9.286864
72.680 9.328287
72.685 9.055559
72.690 8.6999
72.695 8.590708
72.700 8.246015
72.705 7.98898
72.710 8.174626
72.715 8.268091
72.720 8.434206
72.725 8.903458
72.730 9.036912
72.735 8.95408
72.740 9.057722
72.745 8.728052
72.750 9.182136
72.755 9.187781
72.760 8.639184
72.765 8.57549
72.770 8.461977
72.775 8.33925
72.780 8.430297
72.785 8.02857
72.790 8.359121
72.795 8.532312
72.800 8.809644
72.805 9.159929
72.810 9.170823
72.815 9.296289
72.820 9.092539
72.825 9.318547
72.830 9.273079
72.835 9.340994
72.840 9.03298
72.845 9.405845
72.850 9.712082
72.855 9.837973
72.860 9.862584
72.865 9.664415
72.870 9.424363
72.875 9.334346
72.880 9.23293
72.885 8.759791
72.890 8.53675
72.895 7.948187
72.900 7.988162
72.905 8.268325
72.910 8.378196
72.915 8.543682
72.920 8.722206
72.925 9.130362
72.930 10.062694
72.935 9.985952
72.940 9.812154
72.945 9.321096
72.950 8.910688
72.955 8.958121
72.960 7.857653
72.965 7.198771
72.970 7.152392
72.975 7.073872
72.980 7.376483
72.985 7.47553
72.990 7.498057
72.995 7.958289
73.000 8.367901
