!@!!GADDS PLOTSO FILE: Chi integration type
!@!!Title/SampleName: map-15a
!@!!Comment: ?
!@!!User: Bruker Instrument Administrator
!@!!Site: University of Illinois Chicago
!@!!Frame: map-15a_01_000.gfrm
!@!!Wavelengths    1.54184   1.54056   1.54439
!@!!Frame angles: 2Theta: 63.000 Omega: 50.000 Phi: 0.000 Chi: 90.000
!@!!Integration range: 2Theta: 53.000 to 73.000  Gamma: -105.000 to -75.000
!@!!Integration method: bin normalized
!@!N
!@!SS
!@!M
!@!L 0.0 0.0 0.0 0.0
!@!XDegrees
!@!YCounts
53.000 7.405381
53.005 7.404482
53.010 7.184262
53.015 7.297565
53.020 7.406456
53.025 7.366349
53.030 7.281447
53.035 7.102864
53.040 7.179476
53.045 7.216924
53.050 6.997856
53.055 6.810608
53.060 6.987943
53.065 6.525352
53.070 6.150781
53.075 5.715991
53.080 5.496713
53.085 5.868418
53.090 6.22616
53.095 6.310331
53.100 6.771867
53.105 7.357136
53.110 7.843531
53.115 8.103374
53.120 7.539478
53.125 7.621305
53.130 7.78505
53.135 7.877225
53.140 7.837
53.145 7.911613
53.150 8.067921
53.155 8.069073
53.160 7.824377
53.165 8.080215
53.170 7.818841
53.175 7.507877
53.180 7.320121
53.185 7.100438
53.190 7.599217
53.195 7.376143
53.200 7.212873
53.205 7.681349
53.210 7.785081
53.215 7.95995
53.220 8.1845
53.225 8.176867
53.230 8.296824
53.235 8.224316
53.240 7.794271
53.245 7.791621
53.250 7.709304
53.255 7.298881
53.260 7.098772
53.265 6.971755
53.270 7.099888
53.275 7.777488
53.280 7.756299
53.285 7.380769
53.290 7.427401
53.295 7.3178
53.300 6.952053
53.305 6.631699
53.310 6.115674
53.315 6.271101
53.320 6.535703
53.325 6.529934
53.330 6.958422
53.335 7.194934
53.340 6.920699
53.345 7.028874
53.350 7.548351
53.355 7.82598
53.360 7.955205
53.365 7.709052
53.370 7.70974
53.375 7.55574
53.380 7.109822
53.385 6.603407
53.390 6.672724
53.395 6.793046
53.400 7.239817
53.405 7.53849
53.410 7.670577
53.415 8.093548
53.420 8.03811
53.425 7.549727
53.430 7.123128
53.435 6.982694
53.440 7.126586
53.445 7.421133
53.450 7.347944
53.455 7.372041
53.460 7.581941
53.465 7.665347
53.470 7.299673
53.475 7.318166
53.480 7.237678
53.485 7.453649
53.490 7.761525
53.495 7.560174
53.500 7.424779
53.505 7.540276
53.510 7.876053
53.515 8.03653
53.520 7.84055
53.525 7.667451
53.530 7.840955
53.535 8.00305
53.540 7.827929
53.545 7.461555
53.550 7.121232
53.555 6.757913
53.560 6.766601
53.565 6.999898
53.570 7.007871
53.575 7.22345
53.580 7.441359
53.585 7.894121
53.590 8.346586
53.595 8.203214
53.600 8.335128
53.605 8.471967
53.610 8.307381
53.615 8.138033
53.620 8.11524
53.625 8.812594
53.630 9.043564
53.635 9.178942
53.640 9.426363
53.645 9.635423
53.650 9.548461
53.655 9.394386
53.660 9.308823
53.665 9.514351
53.670 9.408082
53.675 9.428546
53.680 9.29318
53.685 9.071624
53.690 8.650448
53.695 8.255128
53.700 7.702419
53.705 7.18074
53.710 6.880087
53.715 7.211702
53.720 7.758821
53.725 8.422338
53.730 8.918167
53.735 9.237045
53.740 9.578803
53.745 9.394493
53.750 9.252625
53.755 8.900715
53.760 8.215658
53.765 7.927601
53.770 7.492657
53.775 7.488162
53.780 8.196337
53.785 8.380363
53.790 8.570039
53.795 8.824562
53.800 9.076094
53.805 9.52593
53.810 9.098492
53.815 8.90523
53.820 9.030796
53.825 8.883142
53.830 8.762917
53.835 8.858912
53.840 8.651737
53.845 8.729345
53.850 8.10508
53.855 7.882066
53.860 7.759677
53.865 7.574424
53.870 7.450535
53.875 7.485373
53.880 7.465841
53.885 7.586036
53.890 7.857381
53.895 7.966504
53.900 8.196787
53.905 8.496243
53.910 8.782605
53.915 8.81162
53.920 9.100146
53.925 8.960313
53.930 9.197297
53.935 9.168841
53.940 9.151209
53.945 9.271724
53.950 9.170799
53.955 8.80067
53.960 8.977663
53.965 8.761666
53.970 8.416788
53.975 8.243816
53.980 7.979072
53.985 8.287846
53.990 8.348237
53.995 8.335918
54.000 8.215489
54.005 8.210732
54.010 8.13521
54.015 8.166246
54.020 7.853679
54.025 7.901166
54.030 8.037956
54.035 8.414578
54.040 8.146828
54.045 8.62123
54.050 8.50639
54.055 8.686196
54.060 8.921508
54.065 8.693237
54.070 8.706957
54.075 8.591146
54.080 8.525914
54.085 9.151731
54.090 9.029371
54.095 8.812552
54.100 8.606204
54.105 8.824703
54.110 8.724895
54.115 8.5418
54.120 8.191158
54.125 8.184888
54.130 8.051663
54.135 8.033005
54.140 8.356414
54.145 8.400415
54.150 8.339753
54.155 8.309617
54.160 8.265416
54.165 8.584978
54.170 8.976269
54.175 9.011103
54.180 8.960112
54.185 9.039878
54.190 9.075842
54.195 8.917318
54.200 8.993898
54.205 8.971247
54.210 8.718301
54.215 8.690253
54.220 8.688222
54.225 8.698617
54.230 8.339155
54.235 7.849407
54.240 7.422238
54.245 7.658165
54.250 7.906117
54.255 8.293958
54.260 8.754859
54.265 9.202732
54.270 9.389789
54.275 9.461176
54.280 9.372089
54.285 9.348764
54.290 9.113953
54.295 8.86556
54.300 8.726287
54.305 8.673744
54.310 8.53664
54.315 8.612796
54.320 8.692444
54.325 8.350607
54.330 8.180164
54.335 8.444411
54.340 8.451137
54.345 8.553261
54.350 8.272544
54.355 7.984766
54.360 8.002529
54.365 8.161495
54.370 7.964135
54.375 7.701074
54.380 7.021232
54.385 7.207135
54.390 7.659571
54.395 8.196362
54.400 8.348977
54.405 8.473373
54.410 8.81004
54.415 8.924991
54.420 8.578553
54.425 8.507633
54.430 8.041177
54.435 8.018237
54.440 7.961664
54.445 7.983079
54.450 8.36541
54.455 8.349131
54.460 8.209441
54.465 8.158638
54.470 7.964625
54.475 8.306613
54.480 8.606699
54.485 8.344622
54.490 8.452834
54.495 8.392525
54.500 8.511687
54.505 8.813734
54.510 8.660041
54.515 8.706611
54.520 8.767962
54.525 8.858852
54.530 9.109845
54.535 8.902381
54.540 8.76899
54.545 8.784518
54.550 8.566374
54.555 8.771659
54.560 8.957527
54.565 8.955212
54.570 8.963072
54.575 8.505827
54.580 8.664479
54.585 8.892571
54.590 8.768231
54.595 8.672215
54.600 8.781405
54.605 9.184428
54.610 9.374226
54.615 9.179205
54.620 9.282
54.625 8.71527
54.630 8.287802
54.635 7.858606
54.640 7.401477
54.645 7.603557
54.650 7.366899
54.655 7.003366
54.660 7.125864
54.665 7.155147
54.670 7.057114
54.675 6.960033
54.680 6.866278
54.685 7.343771
54.690 7.64592
54.695 7.820861
54.700 8.010704
54.705 8.171812
54.710 8.282297
54.715 7.843
54.720 7.634929
54.725 7.513809
54.730 7.495027
54.735 7.501482
54.740 7.798788
54.745 8.154665
54.750 7.994545
54.755 7.849882
54.760 7.939384
54.765 8.272044
54.770 8.240408
54.775 8.297232
54.780 8.164958
54.785 8.327771
54.790 8.438057
54.795 8.237771
54.800 8.233736
54.805 8.835626
54.810 9.104118
54.815 9.513897
54.820 9.946476
54.825 10.075896
54.830 10.49553
54.835 10.160865
54.840 9.261097
54.845 9.214545
54.850 9.295426
54.855 9.520639
54.860 10.001579
54.865 10.121083
54.870 10.111523
54.875 10.246419
54.880 9.815359
54.885 9.816763
54.890 9.302848
54.895 9.120008
54.900 8.974723
54.905 8.768995
54.910 9.008813
54.915 9.635211
54.920 9.665605
54.925 9.405603
54.930 8.743253
54.935 9.177282
54.940 9.658394
54.945 9.228012
54.950 8.467107
54.955 8.201629
54.960 8.315129
54.965 8.373864
54.970 7.945549
54.975 7.682555
54.980 7.810564
54.985 8.362801
54.990 8.749141
54.995 9.190758
55.000 9.494625
55.005 9.793219
55.010 10.111715
55.015 10.534163
55.020 10.410332
55.025 10.308377
55.030 9.748747
55.035 9.707319
55.040 9.614364
55.045 9.370285
55.050 9.122183
55.055 9.000085
55.060 8.538036
55.065 8.749427
55.070 8.508975
55.075 8.55927
55.080 8.688803
55.085 8.743678
55.090 9.050337
55.095 9.153395
55.100 9.214432
55.105 9.560422
55.110 9.759684
55.115 9.670168
55.120 9.25127
55.125 9.035844
55.130 9.581993
55.135 9.766951
55.140 9.696189
55.145 9.594917
55.150 9.848343
55.155 9.856352
55.160 9.821701
55.165 9.196883
55.170 8.808035
55.175 8.533259
55.180 8.491236
55.185 8.325027
55.190 8.17519
55.195 7.967412
55.200 8.169145
55.205 8.155562
55.210 8.097265
55.215 7.863894
55.220 7.957246
55.225 8.259962
55.230 8.00197
55.235 7.964205
55.240 8.151096
55.245 8.281392
55.250 8.590456
55.255 8.531654
55.260 8.233183
55.265 8.595915
55.270 8.689595
55.275 8.609596
55.280 8.773457
55.285 8.792922
55.290 8.957561
55.295 9.280527
55.300 9.356676
55.305 9.512704
55.310 9.671583
55.315 9.445048
55.320 9.315237
55.325 9.079536
55.330 8.724809
55.335 8.336844
55.340 7.72118
55.345 7.455486
55.350 7.735597
55.355 7.924675
55.360 8.207675
55.365 8.387959
55.370 8.771346
55.375 9.11271
55.380 9.09539
55.385 8.661372
55.390 8.388368
55.395 8.690387
55.400 8.812
55.405 8.638842
55.410 8.551634
55.415 8.518762
55.420 8.521448
55.425 8.150167
55.430 7.599331
55.435 7.613657
55.440 7.480045
55.445 7.458426
55.450 7.673902
55.455 7.884202
55.460 8.22042
55.465 8.046472
55.470 8.105486
55.475 8.443192
55.480 8.502773
55.485 8.555307
55.490 8.404422
55.495 8.369749
55.500 8.818846
55.505 9.042428
55.510 8.754205
55.515 8.353339
55.520 8.168466
55.525 8.491463
55.530 8.898342
55.535 8.441042
55.540 8.368237
55.545 8.90351
55.550 9.438524
55.555 9.762573
55.560 9.450387
55.565 9.004969
55.570 8.919005
55.575 8.730056
55.580 8.379439
55.585 8.188572
55.590 8.100184
55.595 8.118018
55.600 8.231076
55.605 8.506814
55.610 9.18207
55.615 9.408269
55.620 9.459414
55.625 9.501637
55.630 9.691498
55.635 9.909643
55.640 9.663861
55.645 8.663715
55.650 8.361938
55.655 8.603702
55.660 8.457534
55.665 8.115739
55.670 7.794457
55.675 7.628964
55.680 8.0135
55.685 8.180408
55.690 7.997408
55.695 8.083841
55.700 8.153054
55.705 8.136565
55.710 8.031395
55.715 7.783743
55.720 7.687949
55.725 7.575369
55.730 7.707813
55.735 8.2016
55.740 8.31622
55.745 8.563942
55.750 8.908249
55.755 9.066748
55.760 9.062335
55.765 8.848729
55.770 8.55889
55.775 8.716988
55.780 8.955723
55.785 8.75765
55.790 9.129341
55.795 9.476807
55.800 9.627979
55.805 9.74907
55.810 9.720233
55.815 9.595173
55.820 9.868556
55.825 9.327534
55.830 9.216928
55.835 9.242626
55.840 9.077602
55.845 9.334921
55.850 9.185637
55.855 8.866215
55.860 9.079798
55.865 8.702785
55.870 8.525173
55.875 8.594728
55.880 8.52059
55.885 8.442213
55.890 8.449614
55.895 8.734224
55.900 8.962193
55.905 8.806845
55.910 8.420134
55.915 8.822803
55.920 8.45117
55.925 8.344732
55.930 8.538314
55.935 8.567369
55.940 8.632935
55.945 8.720835
55.950 8.473232
55.955 9.172817
55.960 9.222061
55.965 8.858705
55.970 8.955935
55.975 8.684645
55.980 8.360438
55.985 8.202159
55.990 7.856583
55.995 7.725587
56.000 8.008803
56.005 8.009891
56.010 8.468361
56.015 8.615346
56.020 8.533971
56.025 8.528526
56.030 8.373978
56.035 8.177742
56.040 7.776285
56.045 7.377218
56.050 7.284743
56.055 7.383572
56.060 7.416832
56.065 7.197596
56.070 7.479781
56.075 8.318139
56.080 8.573774
56.085 8.992478
56.090 9.109046
56.095 9.464499
56.100 9.377074
56.105 9.057466
56.110 8.77024
56.115 9.238527
56.120 9.628824
56.125 9.482096
56.130 9.399479
56.135 9.675568
56.140 9.499975
56.145 9.502913
56.150 8.704812
56.155 8.135314
56.160 8.213186
56.165 8.216779
56.170 8.735484
56.175 9.04049
56.180 9.522795
56.185 9.886905
56.190 10.001209
56.195 10.234195
56.200 10.098877
56.205 9.533405
56.210 9.322537
56.215 9.22538
56.220 9.222116
56.225 9.397899
56.230 9.73468
56.235 9.880801
56.240 10.006221
56.245 9.848366
56.250 9.727134
56.255 9.728041
56.260 9.582519
56.265 8.986687
56.270 8.929918
56.275 9.027693
56.280 9.314849
56.285 9.114845
56.290 8.931645
56.295 8.826735
56.300 8.94534
56.305 8.99112
56.310 9.053078
56.315 8.838071
56.320 8.939795
56.325 8.939449
56.330 8.872797
56.335 9.298524
56.340 9.261216
56.345 9.588597
56.350 9.759308
56.355 9.791758
56.360 9.637696
56.365 9.336584
56.370 9.031409
56.375 9.381446
56.380 9.029791
56.385 8.811436
56.390 9.024766
56.395 9.43083
56.400 10.019273
56.405 10.140284
56.410 9.847683
56.415 10.280733
56.420 10.826006
56.425 10.60193
56.430 10.723308
56.435 10.575157
56.440 10.226962
56.445 10.179889
56.450 9.997561
56.455 9.933513
56.460 9.927369
56.465 10.09625
56.470 10.335638
56.475 10.941732
56.480 10.627919
56.485 10.479616
56.490 10.834602
56.495 10.689092
56.500 10.44214
56.505 10.473514
56.510 10.801659
56.515 11.458803
56.520 11.4795
56.525 11.201043
56.530 11.495786
56.535 11.427989
56.540 11.07909
56.545 10.395173
56.550 10.208515
56.555 10.154357
56.560 10.129138
56.565 9.921334
56.570 9.997369
56.575 9.923885
56.580 10.105666
56.585 10.115715
56.590 9.987732
56.595 9.752565
56.600 9.951247
56.605 9.964247
56.610 10.028671
56.615 9.789645
56.620 9.300016
56.625 9.446589
56.630 9.757283
56.635 9.837864
56.640 9.670015
56.645 9.444549
56.650 9.5765
56.655 9.596087
56.660 9.857333
56.665 9.656598
56.670 9.130905
56.675 9.160459
56.680 9.498744
56.685 9.795681
56.690 10.163365
56.695 10.364791
56.700 10.277217
56.705 10.334175
56.710 10.536231
56.715 10.530584
56.720 10.303082
56.725 9.833493
56.730 9.263615
56.735 9.444754
56.740 9.88734
56.745 10.23206
56.750 10.258937
56.755 9.871099
56.760 9.7516
56.765 9.748103
56.770 10.015678
56.775 9.730924
56.780 9.061984
56.785 9.243082
56.790 9.936227
56.795 10.539338
56.800 10.635652
56.805 10.078167
56.810 10.092407
56.815 10.21101
56.820 9.75261
56.825 9.640765
56.830 9.371328
56.835 8.758507
56.840 8.974673
56.845 8.984083
56.850 8.822013
56.855 8.659679
56.860 8.406477
56.865 8.082713
56.870 8.392556
56.875 8.173983
56.880 8.113952
56.885 7.817117
56.890 7.90323
56.895 7.985298
56.900 8.523027
56.905 8.781717
56.910 8.487222
56.915 8.470329
56.920 8.545992
56.925 8.353523
56.930 8.370028
56.935 7.751895
56.940 7.940383
56.945 8.502319
56.950 8.553785
56.955 8.755479
56.960 9.094966
56.965 8.979934
56.970 9.258181
56.975 8.859733
56.980 8.375965
56.985 8.462362
56.990 8.245697
56.995 8.095936
57.000 8.403761
57.005 8.234678
57.010 8.385061
57.015 8.42404
57.020 8.541587
57.025 8.481478
57.030 8.330436
57.035 8.277509
57.040 8.341127
57.045 8.359259
57.050 8.306066
57.055 8.165049
57.060 8.418211
57.065 8.492734
57.070 8.668091
57.075 8.798487
57.080 8.85204
57.085 9.004185
57.090 9.024361
57.095 8.769114
57.100 8.669102
57.105 8.390776
57.110 8.491733
57.115 8.725279
57.120 9.103984
57.125 9.022226
57.130 9.093014
57.135 8.971709
57.140 8.903561
57.145 9.036199
57.150 8.977219
57.155 8.699764
57.160 8.73503
57.165 8.613025
57.170 8.645535
57.175 8.489061
57.180 8.168369
57.185 8.145663
57.190 7.946641
57.195 8.248904
57.200 8.35809
57.205 8.547476
57.210 9.06524
57.215 9.32167
57.220 9.050607
57.225 9.640942
57.230 9.754833
57.235 9.873992
57.240 9.889696
57.245 9.742027
57.250 9.539506
57.255 9.600694
57.260 9.229836
57.265 9.448854
57.270 9.624929
57.275 9.551221
57.280 9.622036
57.285 9.798144
57.290 9.702039
57.295 9.656868
57.300 9.444748
57.305 9.474512
57.310 9.123374
57.315 9.053132
57.320 8.982754
57.325 8.796715
57.330 9.044584
57.335 8.751892
57.340 8.940968
57.345 9.046106
57.350 9.050893
57.355 9.205117
57.360 9.137589
57.365 9.256975
57.370 9.385929
57.375 9.187407
57.380 9.511403
57.385 9.460048
57.390 9.865722
57.395 10.247279
57.400 10.091527
57.405 10.173312
57.410 9.936535
57.415 9.703899
57.420 9.950308
57.425 9.766793
57.430 9.481578
57.435 9.07631
57.440 8.970167
57.445 8.926561
57.450 8.679613
57.455 8.377426
57.460 8.156575
57.465 8.221232
57.470 8.719433
57.475 8.855835
57.480 8.998347
57.485 8.858701
57.490 8.892045
57.495 8.878798
57.500 8.912397
57.505 8.30054
57.510 8.530485
57.515 8.68457
57.520 8.506344
57.525 8.297557
57.530 8.204428
57.535 8.612056
57.540 9.175611
57.545 9.270526
57.550 9.26501
57.555 9.629636
57.560 9.813829
57.565 9.745982
57.570 9.548296
57.575 9.194295
57.580 8.997813
57.585 9.027315
57.590 9.34753
57.595 9.180909
57.600 9.413188
57.605 8.986237
57.610 9.028868
57.615 9.158307
57.620 9.088585
57.625 9.049517
57.630 9.195517
57.635 9.095167
57.640 9.512395
57.645 9.552676
57.650 9.402048
57.655 9.542544
57.660 9.362967
57.665 9.500168
57.670 10.055429
57.675 10.032293
57.680 10.243382
57.685 10.455249
57.690 10.719272
57.695 10.983626
57.700 10.427011
57.705 9.674822
57.710 9.407903
57.715 9.057337
57.720 8.646644
57.725 8.229187
57.730 7.955172
57.735 8.62311
57.740 9.052758
57.745 9.061504
57.750 9.261436
57.755 9.526517
57.760 9.263613
57.765 9.039071
57.770 8.277141
57.775 8.22046
57.780 8.435028
57.785 8.581088
57.790 9.308202
57.795 10.033635
57.800 10.33785
57.805 10.911139
57.810 11.196454
57.815 10.912252
57.820 10.60277
57.825 10.065799
57.830 9.476923
57.835 8.857739
57.840 8.678967
57.845 8.304864
57.850 8.580026
57.855 8.558443
57.860 8.378167
57.865 8.564224
57.870 9.209465
57.875 8.815728
57.880 8.678888
57.885 8.821774
57.890 8.816856
57.895 8.951697
57.900 8.539513
57.905 8.157966
57.910 8.348247
57.915 8.316965
57.920 8.26278
57.925 8.116942
57.930 8.067824
57.935 8.525496
57.940 8.896672
57.945 9.008584
57.950 9.193988
57.955 9.295549
57.960 9.906739
57.965 10.569633
57.970 10.574111
57.975 10.607593
57.980 10.644248
57.985 10.500978
57.990 10.692461
57.995 10.384298
58.000 9.896086
58.005 10.032452
58.010 9.512702
58.015 9.197354
58.020 8.826613
58.025 8.350507
58.030 7.990457
58.035 7.940751
58.040 8.160029
58.045 8.285142
58.050 8.68342
58.055 8.915074
58.060 8.865225
58.065 9.031624
58.070 9.27059
58.075 8.981392
58.080 9.24096
58.085 9.197548
58.090 9.212364
58.095 9.266706
58.100 9.484517
58.105 9.668513
58.110 10.148956
58.115 10.14887
58.120 10.147922
58.125 10.19928
58.130 10.275057
58.135 9.569131
58.140 9.19127
58.145 8.892056
58.150 8.766292
58.155 9.023246
58.160 8.912747
58.165 8.988723
58.170 9.405365
58.175 9.079969
58.180 9.144715
58.185 9.516647
58.190 9.567218
58.195 9.804821
58.200 10.280114
58.205 10.638114
58.210 11.047277
58.215 10.572439
58.220 10.088814
58.225 9.731047
58.230 9.63499
58.235 9.049863
58.240 8.967468
58.245 8.956097
58.250 9.320878
58.255 9.304042
58.260 9.231008
58.265 9.158021
58.270 9.128541
58.275 9.072948
58.280 9.266446
58.285 9.3278
58.290 9.313169
58.295 9.466486
58.300 9.619063
58.305 10.090683
58.310 10.217746
58.315 9.963925
58.320 9.346305
58.325 9.499489
58.330 9.315265
58.335 9.09931
58.340 8.808058
58.345 8.756878
58.350 9.416112
58.355 10.555501
58.360 10.628757
58.365 10.938981
58.370 10.694242
58.375 10.78657
58.380 10.754601
58.385 10.552909
58.390 10.180695
58.395 10.197769
58.400 10.099604
58.405 10.153446
58.410 10.379041
58.415 10.493464
58.420 10.653613
58.425 10.725262
58.430 11.031932
58.435 11.455936
58.440 11.498476
58.445 11.450184
58.450 11.592841
58.455 11.535101
58.460 11.326041
58.465 10.746531
58.470 10.677105
58.475 10.921782
58.480 10.887559
58.485 10.367162
58.490 10.690725
58.495 11.522364
58.500 11.939625
58.505 12.213226
58.510 12.317142
58.515 12.621924
58.520 12.877501
58.525 12.364426
58.530 11.887257
58.535 11.600222
58.540 11.300054
58.545 10.607585
58.550 10.173244
58.555 9.973821
58.560 10.162995
58.565 9.747108
58.570 9.581467
58.575 9.812252
58.580 9.95832
58.585 9.920622
58.590 9.930443
58.595 9.702295
58.600 9.566124
58.605 9.581323
58.610 9.253642
58.615 9.385048
58.620 9.680564
58.625 9.857153
58.630 10.038241
58.635 10.806924
58.640 11.303556
58.645 11.448149
58.650 11.134395
58.655 10.98513
58.660 11.058543
58.665 11.532011
58.670 11.012487
58.675 10.921232
58.680 11.594189
58.685 12.197697
58.690 12.048352
58.695 12.460061
58.700 12.230561
58.705 12.366173
58.710 11.768459
58.715 10.954476
58.720 11.03531
58.725 11.334664
58.730 11.249573
58.735 11.325561
58.740 11.472588
58.745 11.308353
58.750 11.363886
58.755 10.835582
58.760 10.640554
58.765 10.413401
58.770 10.3801
58.775 10.617396
58.780 11.128259
58.785 11.034801
58.790 11.187746
58.795 10.915949
58.800 10.504722
58.805 10.117682
58.810 9.601789
58.815 9.183482
58.820 9.137838
58.825 8.8866
58.830 8.619293
58.835 8.596007
58.840 9.145331
58.845 9.296578
58.850 9.539851
58.855 9.654632
58.860 9.63625
58.865 9.786609
58.870 10.043428
58.875 9.76048
58.880 9.781408
58.885 9.958853
58.890 10.075026
58.895 10.072788
58.900 9.89795
58.905 9.455995
58.910 9.561684
58.915 9.804673
58.920 9.814644
58.925 9.896979
58.930 10.129291
58.935 10.389735
58.940 10.781589
58.945 10.608322
58.950 10.613141
58.955 10.094433
58.960 9.625671
58.965 9.728942
58.970 9.576982
58.975 9.187498
58.980 9.043776
58.985 8.929533
58.990 9.296907
58.995 9.554915
59.000 9.717551
59.005 10.065122
59.010 10.132
59.015 9.791121
59.020 9.424999
59.025 9.687843
59.030 9.539168
59.035 9.467513
59.040 9.326997
59.045 9.183562
59.050 9.426866
59.055 9.508834
59.060 9.500416
59.065 9.897202
59.070 9.604628
59.075 9.490349
59.080 9.46736
59.085 9.350791
59.090 9.158235
59.095 8.935999
59.100 8.441178
59.105 8.544609
59.110 8.664753
59.115 8.773442
59.120 8.724904
59.125 8.757565
59.130 8.936778
59.135 9.5515
59.140 9.528499
59.145 9.966794
59.150 10.28733
59.155 10.648584
59.160 10.858091
59.165 10.489851
59.170 10.291057
59.175 10.047852
59.180 9.377238
59.185 9.297249
59.190 9.681643
59.195 9.946487
59.200 10.075994
59.205 9.602839
59.210 10.010419
59.215 10.03156
59.220 9.697783
59.225 9.153464
59.230 8.649339
59.235 8.474264
59.240 8.693375
59.245 8.687156
59.250 9.060581
59.255 9.063955
59.260 8.961124
59.265 9.015971
59.270 9.048523
59.275 8.974327
59.280 8.882976
59.285 8.946135
59.290 9.298104
59.295 9.801764
59.300 9.782095
59.305 9.873522
59.310 9.777478
59.315 9.50985
59.320 9.056428
59.325 8.642869
59.330 8.413991
59.335 8.713802
59.340 8.694181
59.345 8.618325
59.350 8.950023
59.355 9.259249
59.360 9.086344
59.365 8.844833
59.370 8.777262
59.375 8.9163
59.380 9.006108
59.385 8.426198
59.390 8.739713
59.395 9.02427
59.400 9.066506
59.405 8.700854
59.410 8.423863
59.415 8.344415
59.420 8.490091
59.425 8.031749
59.430 7.764294
59.435 7.763603
59.440 8.119456
59.445 8.724128
59.450 8.884786
59.455 9.489272
59.460 9.956862
59.465 10.25495
59.470 10.301449
59.475 10.174559
59.480 9.632778
59.485 9.53821
59.490 8.836635
59.495 8.794497
59.500 8.529417
59.505 8.351888
59.510 8.043677
59.515 8.154076
59.520 8.083252
59.525 7.902278
59.530 7.596205
59.535 7.478154
59.540 7.805219
59.545 8.125628
59.550 7.96134
59.555 8.127369
59.560 8.563134
59.565 8.331161
59.570 8.770079
59.575 8.188781
59.580 8.206562
59.585 8.634719
59.590 8.759949
59.595 8.766936
59.600 9.073343
59.605 9.130158
59.610 9.573779
59.615 9.687869
59.620 9.794726
59.625 9.846982
59.630 9.697973
59.635 9.555935
59.640 9.453576
59.645 9.513467
59.650 9.408342
59.655 9.085607
59.660 9.37485
59.665 9.417996
59.670 9.359157
59.675 9.208738
59.680 9.407186
59.685 9.646973
59.690 9.324834
59.695 8.939089
59.700 9.21202
59.705 9.805426
59.710 9.934236
59.715 9.781768
59.720 10.274346
59.725 10.639384
59.730 10.780009
59.735 10.448018
59.740 10.064264
59.745 9.94252
59.750 10.132102
59.755 9.764058
59.760 9.843443
59.765 9.926195
59.770 9.684231
59.775 9.781416
59.780 9.887873
59.785 9.0272
59.790 8.789015
59.795 8.855854
59.800 8.556996
59.805 8.639956
59.810 8.68497
59.815 8.913065
59.820 9.503383
59.825 9.732859
59.830 9.542722
59.835 9.640123
59.840 9.517187
59.845 9.388741
59.850 9.035894
59.855 8.762387
59.860 8.681859
59.865 8.47389
59.870 8.589038
59.875 8.776228
59.880 9.10387
59.885 9.110417
59.890 9.181669
59.895 9.1921
59.900 9.176169
59.905 9.04004
59.910 9.68542
59.915 9.630497
59.920 9.751103
59.925 9.702777
59.930 9.414869
59.935 9.228557
59.940 9.206486
59.945 8.800241
59.950 8.586233
59.955 8.342781
59.960 8.542974
59.965 9.242765
59.970 9.661205
59.975 9.831889
59.980 9.476448
59.985 9.543283
59.990 9.800658
59.995 9.797606
60.000 9.870709
60.005 9.982099
60.010 9.994486
60.015 10.156868
60.020 9.872998
60.025 9.61512
60.030 9.203851
60.035 8.88977
60.040 9.117887
60.045 9.257771
60.050 9.2616
60.055 9.376782
60.060 9.443813
60.065 9.039742
60.070 8.854292
60.075 8.335753
60.080 7.874728
60.085 7.846637
60.090 7.829565
60.095 7.899175
60.100 8.484557
60.105 8.635141
60.110 8.774721
60.115 8.916382
60.120 8.875861
60.125 8.793395
60.130 8.233423
60.135 8.063042
60.140 7.959779
60.145 7.920127
60.150 7.957188
60.155 8.053287
60.160 8.336562
60.165 8.796943
60.170 8.614615
60.175 8.573142
60.180 8.533449
60.185 8.684335
60.190 8.289602
60.195 8.26193
60.200 8.37173
60.205 8.645312
60.210 8.661876
60.215 8.999495
60.220 9.19375
60.225 9.294037
60.230 9.246036
60.235 9.269532
60.240 9.184158
60.245 8.90761
60.250 8.719889
60.255 8.81124
60.260 8.79986
60.265 8.593375
60.270 8.345074
60.275 8.370485
60.280 8.483368
60.285 8.376845
60.290 8.020349
60.295 8.087718
60.300 8.157516
60.305 8.151102
60.310 8.084667
60.315 8.320481
60.320 8.157472
60.325 8.109868
60.330 8.172327
60.335 8.440545
60.340 8.54169
60.345 8.824028
60.350 8.630263
60.355 8.585882
60.360 8.382616
60.365 8.143703
60.370 8.084844
60.375 8.170362
60.380 8.636738
60.385 8.876172
60.390 9.288173
60.395 9.883714
60.400 9.6391
60.405 9.801405
60.410 9.318835
60.415 8.99909
60.420 9.169792
60.425 8.993991
60.430 8.680894
60.435 8.815906
60.440 8.779808
60.445 9.221561
60.450 8.849527
60.455 8.711488
60.460 8.812616
60.465 8.769592
60.470 8.646342
60.475 8.434169
60.480 8.231589
60.485 8.297169
60.490 8.095228
60.495 7.708003
60.500 8.269487
60.505 8.497268
60.510 8.3844
60.515 8.325518
60.520 8.32508
60.525 8.468687
60.530 8.612217
60.535 8.122503
60.540 8.341451
60.545 8.217971
60.550 8.338674
60.555 8.562743
60.560 8.554806
60.565 8.447428
60.570 8.602037
60.575 8.205958
60.580 8.035773
60.585 7.835622
60.590 7.733898
60.595 7.854835
60.600 7.888517
60.605 7.875107
60.610 8.457894
60.615 8.906193
60.620 8.749854
60.625 8.783716
60.630 8.816368
60.635 9.018828
60.640 9.364224
60.645 9.214823
60.650 9.097224
60.655 9.188409
60.660 9.31284
60.665 9.022029
60.670 8.806731
60.675 8.718013
60.680 8.429742
60.685 8.481093
60.690 8.67256
60.695 8.541902
60.700 9.090348
60.705 9.71211
60.710 10.009371
60.715 10.029272
60.720 10.033752
60.725 9.561701
60.730 9.557781
60.735 9.021222
60.740 8.490376
60.745 8.171724
60.750 8.536166
60.755 8.789194
60.760 8.985942
60.765 9.142245
60.770 9.432345
60.775 9.511757
60.780 9.576003
60.785 9.139163
60.790 9.064526
60.795 8.991163
60.800 8.777303
60.805 8.903045
60.810 8.896366
60.815 8.811252
60.820 8.882155
60.825 8.819838
60.830 9.013502
60.835 9.166074
60.840 8.809762
60.845 8.640085
60.850 8.944806
60.855 9.286909
60.860 9.587593
60.865 9.530131
60.870 9.377974
60.875 9.921532
60.880 10.654799
60.885 10.345253
60.890 9.641759
60.895 8.997476
60.900 8.998722
60.905 9.059696
60.910 8.585103
60.915 8.173697
60.920 8.50368
60.925 9.150675
60.930 9.64387
60.935 9.833306
60.940 9.512575
60.945 9.1875
60.950 8.810273
60.955 8.393751
60.960 8.133034
60.965 7.80988
60.970 7.666402
60.975 8.155104
60.980 8.568167
60.985 8.581812
60.990 8.471414
60.995 8.393992
61.000 8.914315
61.005 9.126447
61.010 8.874285
61.015 8.775209
61.020 9.066353
61.025 9.424743
61.030 9.479858
61.035 9.10106
61.040 8.826478
61.045 8.87503
61.050 8.847831
61.055 8.644593
61.060 8.802327
61.065 8.969147
61.070 8.962062
61.075 9.054831
61.080 9.165763
61.085 9.469069
61.090 9.446434
61.095 9.203579
61.100 8.776312
61.105 8.9741
61.110 8.697531
61.115 8.465872
61.120 8.50046
61.125 8.725924
61.130 8.623273
61.135 8.888982
61.140 8.900508
61.145 9.604218
61.150 9.704449
61.155 9.476903
61.160 9.712389
61.165 9.693212
61.170 9.624205
61.175 9.410696
61.180 8.798128
61.185 8.389255
61.190 8.168574
61.195 7.838573
61.200 7.912128
61.205 8.0472
61.210 8.189568
61.215 8.703238
61.220 9.311693
61.225 9.526982
61.230 9.965207
61.235 10.003097
61.240 9.614304
61.245 9.638127
61.250 9.610821
61.255 9.860804
61.260 9.807283
61.265 9.688689
61.270 9.664188
61.275 9.641112
61.280 9.623086
61.285 9.363239
61.290 9.020594
61.295 8.831846
61.300 8.587139
61.305 8.589013
61.310 8.69572
61.315 8.454464
61.320 8.32279
61.325 8.080612
61.330 7.991834
61.335 7.898684
61.340 7.812396
61.345 7.83969
61.350 7.956694
61.355 7.88488
61.360 8.11347
61.365 8.176441
61.370 8.007369
61.375 8.209522
61.380 7.737169
61.385 7.692039
61.390 7.906215
61.395 8.317148
61.400 9.053903
61.405 9.413493
61.410 9.016774
61.415 9.022102
61.420 8.986374
61.425 8.683697
61.430 8.142899
61.435 7.570253
61.440 7.786182
61.445 8.117659
61.450 8.385774
61.455 8.361676
61.460 8.288736
61.465 8.261307
61.470 8.400292
61.475 7.938243
61.480 7.950994
61.485 8.338204
61.490 8.270286
61.495 8.513023
61.500 8.324994
61.505 8.046172
61.510 8.143836
61.515 8.401191
61.520 8.160266
61.525 8.473525
61.530 8.541961
61.535 8.77879
61.540 9.026916
61.545 9.970595
61.550 10.125158
61.555 10.257969
61.560 10.276935
61.565 10.166391
61.570 10.490854
61.575 10.07474
61.580 9.346623
61.585 9.283773
61.590 9.172591
61.595 9.259572
61.600 9.390862
61.605 9.050297
61.610 9.156999
61.615 9.065004
61.620 9.020999
61.625 8.868138
61.630 8.682037
61.635 8.51912
61.640 8.521256
61.645 8.45703
61.650 8.195654
61.655 8.020136
61.660 8.083236
61.665 7.992839
61.670 8.029855
61.675 8.152873
61.680 7.983883
61.685 7.82752
61.690 8.015553
61.695 8.167319
61.700 8.282742
61.705 8.562942
61.710 8.642118
61.715 8.86051
61.720 9.093969
61.725 8.729053
61.730 8.553072
61.735 8.49378
61.740 8.37037
61.745 8.463996
61.750 8.85885
61.755 9.006809
61.760 9.452135
61.765 9.855292
61.770 9.7222
61.775 9.733522
61.780 9.423369
61.785 9.454301
61.790 9.779746
61.795 9.824282
61.800 9.907447
61.805 10.283107
61.810 10.30659
61.815 10.369269
61.820 9.885652
61.825 9.678709
61.830 9.20384
61.835 9.062021
61.840 8.930645
61.845 8.80226
61.850 9.088107
61.855 9.42174
61.860 9.106564
61.865 9.105206
61.870 9.366879
61.875 9.442871
61.880 9.492222
61.885 9.396454
61.890 9.683643
61.895 10.164058
61.900 10.267735
61.905 9.584648
61.910 9.43657
61.915 9.506885
61.920 9.302714
61.925 9.10438
61.930 8.868303
61.935 8.915101
61.940 9.108801
61.945 9.278664
61.950 9.31101
61.955 9.382897
61.960 9.033341
61.965 8.853056
61.970 9.011751
61.975 9.181338
61.980 9.294981
61.985 9.275629
61.990 9.31154
61.995 9.294108
62.000 9.241427
62.005 9.356595
62.010 9.713289
62.015 9.746048
62.020 9.715829
62.025 9.53282
62.030 9.789072
62.035 9.898164
62.040 9.354905
62.045 8.791698
62.050 8.653459
62.055 8.766673
62.060 8.934479
62.065 8.832976
62.070 8.653662
62.075 8.602663
62.080 8.703425
62.085 9.036771
62.090 9.359057
62.095 9.289371
62.100 9.434689
62.105 9.639151
62.110 9.747312
62.115 9.67213
62.120 9.211092
62.125 8.846742
62.130 9.117305
62.135 9.171894
62.140 9.402391
62.145 9.364577
62.150 9.351418
62.155 9.346654
62.160 9.38212
62.165 9.265776
62.170 9.41242
62.175 9.555026
62.180 9.952533
62.185 10.015352
62.190 10.159962
62.195 10.132181
62.200 9.836059
62.205 9.596606
62.210 9.210476
62.215 9.058364
62.220 8.968749
62.225 8.602796
62.230 8.36563
62.235 8.305189
62.240 7.999367
62.245 8.241436
62.250 8.257854
62.255 8.318274
62.260 8.593982
62.265 8.842274
62.270 9.056489
62.275 9.34665
62.280 9.148695
62.285 9.161521
62.290 9.5205
62.295 9.393586
62.300 9.297635
62.305 9.296248
62.310 9.017864
62.315 8.849049
62.320 8.744017
62.325 8.441273
62.330 8.419826
62.335 8.640231
62.340 9.011593
62.345 8.990331
62.350 9.170934
62.355 9.196252
62.360 9.52576
62.365 9.893457
62.370 9.902175
62.375 9.723801
62.380 9.952456
62.385 10.07983
62.390 10.403478
62.395 10.061332
62.400 9.91887
62.405 9.7572
62.410 9.610494
62.415 9.590625
62.420 9.476254
62.425 9.236951
62.430 9.454734
62.435 9.551521
62.440 9.681768
62.445 10.110262
62.450 10.365853
62.455 10.108455
62.460 10.128596
62.465 10.022025
62.470 9.923018
62.475 9.888682
62.480 9.589552
62.485 9.587428
62.490 9.591525
62.495 9.536631
62.500 9.601993
62.505 9.804273
62.510 9.624579
62.515 9.528338
62.520 9.241847
62.525 8.926524
62.530 8.934114
62.535 8.921405
62.540 8.57858
62.545 8.502744
62.550 8.46228
62.555 8.979243
62.560 9.618994
62.565 9.805199
62.570 10.201239
62.575 10.214417
62.580 10.534225
62.585 10.688643
62.590 10.419698
62.595 9.963474
62.600 9.567275
62.605 9.158228
62.610 9.325441
62.615 9.168797
62.620 9.124747
62.625 9.285213
62.630 9.725612
62.635 9.751499
62.640 10.157273
62.645 10.445765
62.650 10.389298
62.655 10.326136
62.660 10.47273
62.665 10.725847
62.670 10.981212
62.675 10.466177
62.680 10.081211
62.685 10.087475
62.690 10.448313
62.695 10.689827
62.700 10.137605
62.705 9.964331
62.710 9.91147
62.715 9.919441
62.720 10.251919
62.725 10.322409
62.730 10.180483
62.735 10.254301
62.740 10.490234
62.745 10.974401
62.750 10.951263
62.755 10.704732
62.760 10.599463
62.765 11.156358
62.770 11.158516
62.775 11.059007
62.780 10.839064
62.785 10.976677
62.790 11.227839
62.795 11.059336
62.800 10.562141
62.805 10.977297
62.810 11.061836
62.815 11.377133
62.820 11.573152
62.825 11.625157
62.830 11.782632
62.835 11.785403
62.840 11.989745
62.845 12.015935
62.850 11.861783
62.855 11.553387
62.860 11.308743
62.865 10.979357
62.870 10.907835
62.875 10.686066
62.880 10.763375
62.885 10.571061
62.890 10.775256
62.895 10.596868
62.900 10.869909
62.905 11.13999
62.910 10.826877
62.915 10.523294
62.920 10.44741
62.925 10.111701
62.930 10.134413
62.935 10.32218
62.940 10.17634
62.945 10.27337
62.950 10.219299
62.955 10.162191
62.960 10.368412
62.965 10.162712
62.970 9.771067
62.975 9.510455
62.980 8.971666
62.985 8.91197
62.990 9.039132
62.995 8.95553
63.000 8.981091
63.005 8.96002
63.010 9.299556
63.015 9.599993
63.020 9.94047
63.025 9.534407
63.030 9.637242
63.035 9.676927
63.040 9.62978
63.045 9.504687
63.050 9.726027
63.055 9.4672
63.060 9.326962
63.065 9.224042
63.070 9.622273
63.075 9.475859
63.080 9.300838
63.085 9.294449
63.090 9.540421
63.095 9.95577
63.100 9.90285
63.105 9.811781
63.110 9.507059
63.115 9.362616
63.120 9.147817
63.125 9.358696
63.130 9.424296
63.135 9.341887
63.140 9.441567
63.145 9.981815
63.150 10.218054
63.155 10.410703
63.160 10.115966
63.165 10.049815
63.170 10.123432
63.175 9.726131
63.180 9.338929
63.185 9.185041
63.190 8.955258
63.195 8.640935
63.200 8.337546
63.205 8.016658
63.210 7.847013
63.215 8.232478
63.220 8.65479
63.225 8.86415
63.230 9.421026
63.235 9.662971
63.240 9.686048
63.245 9.752185
63.250 9.290278
63.255 8.787229
63.260 8.675441
63.265 8.411832
63.270 8.783249
63.275 9.435439
63.280 9.84807
63.285 10.186625
63.290 10.377969
63.295 10.182055
63.300 10.190494
63.305 9.783354
63.310 9.564754
63.315 9.886112
63.320 10.095192
63.325 10.349705
63.330 10.789583
63.335 10.72168
63.340 10.680193
63.345 10.607028
63.350 10.369715
63.355 10.320899
63.360 10.344373
63.365 10.421082
63.370 10.691765
63.375 10.674826
63.380 10.592093
63.385 10.312693
63.390 9.875856
63.395 9.384255
63.400 8.78958
63.405 8.407184
63.410 8.544622
63.415 8.467854
63.420 8.72582
63.425 9.409933
63.430 10.178017
63.435 10.760816
63.440 11.005964
63.445 11.075693
63.450 11.293622
63.455 11.440277
63.460 10.665986
63.465 10.477596
63.470 10.212962
63.475 10.567292
63.480 10.344776
63.485 10.251696
63.490 9.926679
63.495 9.954556
63.500 9.686471
63.505 9.780389
63.510 9.259142
63.515 9.122343
63.520 8.909875
63.525 9.127945
63.530 9.336614
63.535 9.538756
63.540 9.415557
63.545 9.464038
63.550 9.306568
63.555 9.508372
63.560 9.59769
63.565 9.874238
63.570 9.731602
63.575 10.043049
63.580 9.982454
63.585 9.982664
63.590 9.598777
63.595 9.190368
63.600 8.895435
63.605 8.717714
63.610 8.481092
63.615 8.666444
63.620 8.76409
63.625 8.807906
63.630 8.944673
63.635 9.129679
63.640 9.534997
63.645 9.673152
63.650 9.820613
63.655 9.905055
63.660 9.677358
63.665 9.648301
63.670 9.484415
63.675 9.055842
63.680 8.859097
63.685 9.148851
63.690 9.202672
63.695 9.40168
63.700 9.673615
63.705 9.692022
63.710 10.148694
63.715 10.229098
63.720 10.168189
63.725 9.828449
63.730 9.632986
63.735 9.575706
63.740 9.876006
63.745 9.690627
63.750 9.77022
63.755 9.338781
63.760 9.533122
63.765 9.941569
63.770 9.97472
63.775 9.628037
63.780 9.593015
63.785 9.550242
63.790 9.931161
63.795 10.277398
63.800 9.751554
63.805 9.57709
63.810 9.553877
63.815 9.40447
63.820 9.714543
63.825 9.585504
63.830 9.553364
63.835 9.690168
63.840 9.681965
63.845 10.172768
63.850 10.340734
63.855 10.297256
63.860 10.692166
63.865 10.70824
63.870 11.008281
63.875 10.855354
63.880 10.1787
63.885 10.213449
63.890 10.095399
63.895 9.874961
63.900 9.654469
63.905 9.610685
63.910 9.736293
63.915 10.039854
63.920 10.037969
63.925 9.756271
63.930 9.829618
63.935 9.45849
63.940 9.677015
63.945 9.985332
63.950 9.776044
63.955 9.778633
63.960 9.815182
63.965 9.624387
63.970 9.885966
63.975 9.901794
63.980 10.044702
63.985 10.407112
63.990 10.392225
63.995 10.582623
64.000 11.054638
64.005 11.256498
64.010 11.273198
64.015 11.399501
64.020 10.926403
64.025 11.195946
64.030 11.507948
64.035 11.599416
64.040 11.303945
64.045 11.019218
64.050 11.148851
64.055 10.998783
64.060 10.885983
64.065 10.717071
64.070 10.829045
64.075 11.18012
64.080 11.03932
64.085 11.162499
64.090 11.455538
64.095 11.355908
64.100 11.173981
64.105 11.123977
64.110 10.984389
64.115 11.047818
64.120 11.01327
64.125 11.19734
64.130 11.28159
64.135 11.586469
64.140 11.443131
64.145 11.252553
64.150 11.711966
64.155 12.354403
64.160 12.613279
64.165 12.333055
64.170 11.725968
64.175 11.694162
64.180 11.905531
64.185 11.562983
64.190 10.577449
64.195 10.307208
64.200 10.525742
64.205 10.526556
64.210 10.202365
64.215 9.8925
64.220 9.438594
64.225 9.388487
64.230 9.611431
64.235 9.812361
64.240 10.601881
64.245 10.869121
64.250 11.016253
64.255 11.21357
64.260 11.166522
64.265 11.097121
64.270 11.112632
64.275 10.522838
64.280 10.305647
64.285 10.603042
64.290 11.177274
64.295 11.609278
64.300 11.720944
64.305 11.391771
64.310 11.658606
64.315 11.793722
64.320 11.549497
64.325 11.355422
64.330 11.14965
64.335 10.95766
64.340 11.141057
64.345 11.393821
64.350 11.49201
64.355 11.769575
64.360 11.582107
64.365 11.160931
64.370 10.687475
64.375 10.453428
64.380 10.369018
64.385 10.52915
64.390 10.262146
64.395 10.401465
64.400 10.939195
64.405 10.994351
64.410 11.154636
64.415 11.348436
64.420 11.37072
64.425 11.375433
64.430 11.176628
64.435 11.195087
64.440 11.53581
64.445 11.292218
64.450 11.146457
64.455 11.510983
64.460 11.445591
64.465 11.078893
64.470 11.047157
64.475 11.114043
64.480 11.236518
64.485 10.972344
64.490 10.825017
64.495 10.874178
64.500 11.319723
64.505 10.848235
64.510 10.769577
64.515 10.346661
64.520 9.861081
64.525 9.538722
64.530 9.567075
64.535 9.655985
64.540 9.83918
64.545 9.570175
64.550 9.903352
64.555 10.073663
64.560 9.974189
64.565 10.089322
64.570 9.956234
64.575 10.030335
64.580 10.078248
64.585 9.966529
64.590 9.791551
64.595 10.135899
64.600 10.424057
64.605 10.705903
64.610 10.710528
64.615 11.250423
64.620 11.692757
64.625 11.787648
64.630 10.984156
64.635 10.517695
64.640 9.913126
64.645 9.656796
64.650 9.623558
64.655 9.362582
64.660 9.754927
64.665 10.010839
64.670 9.775187
64.675 9.913721
64.680 10.169573
64.685 10.273808
64.690 10.469667
64.695 10.572078
64.700 10.807069
64.705 11.453091
64.710 11.854241
64.715 11.878771
64.720 11.620025
64.725 11.813537
64.730 11.722227
64.735 11.768019
64.740 11.418822
64.745 10.903938
64.750 10.81
64.755 10.844933
64.760 10.549127
64.765 10.556557
64.770 10.716922
64.775 11.564662
64.780 11.954602
64.785 11.801096
64.790 11.826711
64.795 12.30922
64.800 12.354985
64.805 12.025235
64.810 12.004293
64.815 11.890331
64.820 12.183375
64.825 12.164594
64.830 12.007648
64.835 12.136755
64.840 12.375636
64.845 12.127951
64.850 12.943601
64.855 13.152627
64.860 13.143708
64.865 13.054996
64.870 12.723581
64.875 12.680613
64.880 13.261355
64.885 12.784719
64.890 13.382186
64.895 13.559867
64.900 13.800519
64.905 14.038567
64.910 13.916872
64.915 13.616079
64.920 13.564601
64.925 12.949274
64.930 12.772283
64.935 13.437356
64.940 13.862038
64.945 14.189755
64.950 14.446644
64.955 14.909189
64.960 14.51806
64.965 14.651857
64.970 14.577917
64.975 14.673685
64.980 14.82074
64.985 14.780865
64.990 14.708019
64.995 15.590782
65.000 15.742726
65.005 15.658517
65.010 15.722034
65.015 15.692434
65.020 15.827695
65.025 16.143286
65.030 16.326567
65.035 16.673611
65.040 16.839882
65.045 16.506163
65.050 16.085861
65.055 16.12949
65.060 15.977491
65.065 15.87448
65.070 15.391794
65.075 15.191578
65.080 15.675912
65.085 16.075108
65.090 15.811741
65.095 15.814568
65.100 15.468207
65.105 15.632174
65.110 15.881858
65.115 15.543952
65.120 15.344119
65.125 15.486812
65.130 15.178585
65.135 14.971078
65.140 14.540281
65.145 13.858006
65.150 13.910604
65.155 13.79209
65.160 13.843515
65.165 13.939246
65.170 13.624861
65.175 13.862923
65.180 13.759611
65.185 13.662778
65.190 13.630961
65.195 13.317948
65.200 12.807923
65.205 12.792346
65.210 12.476217
65.215 12.65741
65.220 12.424336
65.225 12.33492
65.230 12.047071
65.235 11.914452
65.240 12.290958
65.245 12.683627
65.250 12.625053
65.255 12.661478
65.260 12.546152
65.265 12.261879
65.270 12.457651
65.275 12.111894
65.280 11.652888
65.285 11.35752
65.290 10.931989
65.295 10.786881
65.300 10.600112
65.305 10.252329
65.310 10.352793
65.315 10.229172
65.320 10.302273
65.325 10.44511
65.330 10.518068
65.335 10.619562
65.340 10.534164
65.345 10.310998
65.350 10.142695
65.355 10.032887
65.360 10.087261
65.365 10.06874
65.370 10.167985
65.375 10.274154
65.380 10.438847
65.385 10.636755
65.390 10.959959
65.395 10.71405
65.400 10.388158
65.405 10.388818
65.410 10.161992
65.415 9.906974
65.420 9.811221
65.425 9.009657
65.430 9.637472
65.435 9.829392
65.440 9.700685
65.445 9.404871
65.450 9.030155
65.455 8.835768
65.460 9.120263
65.465 8.509782
65.470 8.473129
65.475 8.890421
65.480 9.679488
65.485 10.341858
65.490 10.88559
65.495 11.041665
65.500 11.219728
65.505 11.191068
65.510 11.013098
65.515 10.411373
65.520 10.266286
65.525 9.801572
65.530 9.646445
65.535 9.524105
65.540 9.556993
65.545 9.209044
65.550 9.074465
65.555 8.811658
65.560 8.485015
65.565 8.380426
65.570 8.653811
65.575 8.840607
65.580 9.22215
65.585 9.233611
65.590 9.023961
65.595 9.288891
65.600 9.576114
65.605 9.70427
65.610 9.898224
65.615 9.937037
65.620 10.230893
65.625 10.768867
65.630 10.930069
65.635 10.676128
65.640 10.468667
65.645 10.300834
65.650 10.276732
65.655 10.037462
65.660 10.077647
65.665 10.057376
65.670 9.863754
65.675 9.39183
65.680 9.29565
65.685 9.626823
65.690 9.767489
65.695 9.377374
65.700 9.155416
65.705 9.216979
65.710 9.625488
65.715 9.460358
65.720 8.748743
65.725 9.076874
65.730 9.232273
65.735 9.400945
65.740 9.596217
65.745 9.658367
65.750 9.985929
65.755 10.188895
65.760 9.611621
65.765 9.554854
65.770 9.910551
65.775 10.03377
65.780 9.743649
65.785 9.642057
65.790 9.832407
65.795 10.222919
65.800 9.983199
65.805 10.003135
65.810 10.357523
65.815 10.458043
65.820 10.631442
65.825 10.61213
65.830 10.821319
65.835 11.151791
65.840 10.667188
65.845 10.176321
65.850 10.071685
65.855 9.960514
65.860 10.15159
65.865 10.596049
65.870 10.903515
65.875 11.095458
65.880 11.471513
65.885 11.78451
65.890 11.884716
65.895 11.750437
65.900 11.457743
65.905 11.562653
65.910 11.540743
65.915 11.465757
65.920 11.697498
65.925 11.872601
65.930 11.972133
65.935 11.610224
65.940 11.648601
65.945 11.797934
65.950 11.728161
65.955 11.349153
65.960 11.726995
65.965 11.825441
65.970 11.92859
65.975 11.663378
65.980 11.721435
65.985 11.756714
65.990 11.427614
65.995 10.823499
66.000 10.380869
66.005 10.805505
66.010 10.685267
66.015 10.463768
66.020 10.397141
66.025 10.653232
66.030 11.377639
66.035 11.966601
66.040 11.808089
66.045 12.198696
66.050 12.602587
66.055 12.802743
66.060 12.987595
66.065 12.383409
66.070 11.845604
66.075 11.348693
66.080 11.204875
66.085 11.105907
66.090 11.111786
66.095 10.968413
66.100 10.96548
66.105 11.404796
66.110 11.577534
66.115 11.539921
66.120 11.345192
66.125 11.362478
66.130 11.51415
66.135 12.00624
66.140 12.062326
66.145 12.10058
66.150 11.767827
66.155 11.451672
66.160 11.736187
66.165 11.784042
66.170 11.810609
66.175 11.435019
66.180 11.562299
66.185 12.047546
66.190 12.336879
66.195 12.371998
66.200 12.307995
66.205 12.257529
66.210 12.457913
66.215 12.552289
66.220 12.132315
66.225 12.057221
66.230 11.914029
66.235 12.374129
66.240 11.674506
66.245 11.299879
66.250 11.012364
66.255 11.432796
66.260 11.817789
66.265 11.694273
66.270 10.829982
66.275 11.30211
66.280 11.60922
66.285 11.724904
66.290 11.662329
66.295 11.252277
66.300 10.808729
66.305 11.057709
66.310 11.064619
66.315 10.859946
66.320 10.810802
66.325 10.823784
66.330 11.20742
66.335 11.176577
66.340 10.73142
66.345 10.402795
66.350 10.468679
66.355 10.186279
66.360 9.558311
66.365 9.56738
66.370 9.755288
66.375 9.422633
66.380 9.730117
66.385 9.362988
66.390 9.509669
66.395 9.56848
66.400 9.264017
66.405 9.185754
66.410 9.598945
66.415 9.670228
66.420 10.255495
66.425 10.067541
66.430 9.914816
66.435 9.741754
66.440 10.272575
66.445 10.518708
66.450 10.230659
66.455 9.65312
66.460 9.872297
66.465 9.959564
66.470 10.297139
66.475 9.761436
66.480 9.541759
66.485 9.650546
66.490 9.546623
66.495 9.467341
66.500 9.489781
66.505 9.091102
66.510 8.950738
66.515 8.575586
66.520 8.628845
66.525 8.761529
66.530 8.597511
66.535 8.560479
66.540 8.889472
66.545 9.151427
66.550 9.537573
66.555 9.495914
66.560 10.089849
66.565 10.375913
66.570 10.417435
66.575 10.029008
66.580 9.76018
66.585 9.675284
66.590 9.785419
66.595 9.754594
66.600 9.760287
66.605 9.980678
66.610 10.19821
66.615 10.675494
66.620 10.732809
66.625 10.770657
66.630 10.321359
66.635 10.099232
66.640 9.863348
66.645 9.78265
66.650 9.649178
66.655 9.68319
66.660 9.298284
66.665 9.179373
66.670 8.841459
66.675 8.723469
66.680 8.652718
66.685 8.592907
66.690 8.543876
66.695 8.587666
66.700 8.899169
66.705 9.226281
66.710 9.352839
66.715 9.403247
66.720 9.195359
66.725 9.046855
66.730 8.845396
66.735 8.591717
66.740 8.561553
66.745 8.241497
66.750 8.151986
66.755 8.260548
66.760 8.345566
66.765 8.727262
66.770 8.871354
66.775 8.813656
66.780 9.14278
66.785 9.431627
66.790 9.881213
66.795 10.426074
66.800 10.179822
66.805 10.273195
66.810 10.585474
66.815 10.763858
66.820 10.459632
66.825 9.902779
66.830 9.210042
66.835 9.038214
66.840 8.885293
66.845 8.307753
66.850 7.90708
66.855 8.098776
66.860 8.425368
66.865 8.565142
66.870 8.648907
66.875 8.9245
66.880 9.135356
66.885 9.332198
66.890 9.186221
66.895 9.070215
66.900 9.107267
66.905 8.705527
66.910 8.545766
66.915 8.823281
66.920 8.534845
66.925 8.596876
66.930 8.153413
66.935 8.076599
66.940 8.250046
66.945 8.581259
66.950 8.714594
66.955 8.566828
66.960 8.713375
66.965 8.991467
66.970 9.390863
66.975 9.527247
66.980 9.1289
66.985 8.68497
66.990 8.868267
66.995 8.621797
67.000 8.624005
67.005 8.705556
67.010 9.17661
67.015 9.44802
67.020 9.779879
67.025 9.837392
67.030 10.227476
67.035 10.578509
67.040 10.576431
67.045 9.992102
67.050 9.46401
67.055 9.476851
67.060 9.917914
67.065 9.383616
67.070 8.801535
67.075 8.530171
67.080 8.88955
67.085 9.358334
67.090 9.100033
67.095 8.91427
67.100 9.53092
67.105 9.770836
67.110 9.87079
67.115 9.695556
67.120 9.958257
67.125 10.275743
67.130 9.897974
67.135 9.45476
67.140 9.611257
67.145 9.97811
67.150 10.164811
67.155 9.82905
67.160 9.968021
67.165 10.103312
67.170 9.866899
67.175 9.84237
67.180 9.709559
67.185 9.506259
67.190 9.19523
67.195 8.759201
67.200 8.972743
67.205 9.237225
67.210 8.679547
67.215 8.315557
67.220 8.806395
67.225 9.296202
67.230 9.451526
67.235 9.304324
67.240 9.671253
67.245 10.327363
67.250 10.344325
67.255 9.820974
67.260 9.447389
67.265 9.620811
67.270 9.600003
67.275 9.904275
67.280 10.157037
67.285 10.562985
67.290 10.644846
67.295 10.678733
67.300 10.449015
67.305 10.42237
67.310 10.182078
67.315 9.76881
67.320 9.540421
67.325 9.925902
67.330 9.997261
67.335 10.419681
67.340 10.090428
67.345 9.237587
67.350 9.170569
67.355 9.43113
67.360 9.425426
67.365 9.288275
67.370 8.753049
67.375 8.947699
67.380 9.097053
67.385 9.040037
67.390 8.884641
67.395 8.763888
67.400 9.126068
67.405 9.528477
67.410 9.743814
67.415 9.727071
67.420 9.693486
67.425 9.361004
67.430 9.427693
67.435 8.931389
67.440 8.817266
67.445 8.965623
67.450 9.223577
67.455 9.296456
67.460 9.446742
67.465 9.352084
67.470 9.523118
67.475 9.507149
67.480 9.509665
67.485 10.084896
67.490 10.125027
67.495 10.339334
67.500 10.106281
67.505 10.02331
67.510 9.664437
67.515 9.72729
67.520 9.381794
67.525 9.361471
67.530 9.178689
67.535 9.165818
67.540 9.211844
67.545 9.5682
67.550 9.244586
67.555 9.103402
67.560 9.259102
67.565 9.364722
67.570 9.575831
67.575 9.713139
67.580 9.720573
67.585 9.589533
67.590 9.253718
67.595 9.260482
67.600 9.241067
67.605 9.063105
67.610 8.800043
67.615 8.772746
67.620 9.156932
67.625 9.408671
67.630 9.329628
67.635 9.259292
67.640 9.64374
67.645 9.795621
67.650 9.804139
67.655 9.931607
67.660 9.964394
67.665 9.928775
67.670 9.831358
67.675 9.704558
67.680 9.801862
67.685 10.088828
67.690 10.012444
67.695 9.929733
67.700 9.611972
67.705 9.773067
67.710 9.679465
67.715 9.11374
67.720 8.490988
67.725 8.401927
67.730 8.211405
67.735 8.53646
67.740 8.552725
67.745 8.587371
67.750 9.246341
67.755 9.461916
67.760 9.682402
67.765 9.584925
67.770 9.392751
67.775 9.450788
67.780 9.320356
67.785 9.240606
67.790 9.323672
67.795 9.35207
67.800 9.751024
67.805 9.774613
67.810 9.82538
67.815 10.211529
67.820 10.515292
67.825 10.607997
67.830 10.560113
67.835 10.536283
67.840 10.785039
67.845 11.002295
67.850 10.926676
67.855 10.474347
67.860 9.906996
67.865 9.949616
67.870 9.914566
67.875 9.936177
67.880 9.94031
67.885 9.770841
67.890 10.1286
67.895 10.220128
67.900 10.286747
67.905 10.249528
67.910 10.22167
67.915 10.316001
67.920 10.110006
67.925 10.368775
67.930 11.111703
67.935 11.521811
67.940 11.803391
67.945 11.848616
67.950 11.646734
67.955 11.675864
67.960 11.014904
67.965 10.23751
67.970 9.773913
67.975 9.469107
67.980 9.446274
67.985 9.975509
67.990 10.300616
67.995 10.372288
68.000 10.093487
68.005 9.63185
68.010 9.461871
68.015 9.071473
68.020 8.724101
68.025 8.682305
68.030 8.80243
68.035 9.432845
68.040 9.808913
68.045 9.855383
68.050 10.012801
68.055 10.234179
68.060 10.031021
68.065 10.248797
68.070 10.454007
68.075 10.743364
68.080 11.142731
68.085 11.244651
68.090 11.434232
68.095 11.58007
68.100 11.421489
68.105 11.006569
68.110 10.479197
68.115 10.171387
68.120 9.952888
68.125 9.730699
68.130 10.16299
68.135 9.976229
68.140 10.14141
68.145 10.284416
68.150 10.314356
68.155 10.084
68.160 9.730394
68.165 9.059739
68.170 9.128866
68.175 9.068747
68.180 9.290633
68.185 9.566007
68.190 9.730313
68.195 9.826822
68.200 9.554296
68.205 9.379197
68.210 9.243101
68.215 8.660781
68.220 8.054233
68.225 7.743576
68.230 7.503236
68.235 8.510223
68.240 8.60939
68.245 8.425561
68.250 8.775039
68.255 8.900145
68.260 9.274102
68.265 9.468613
68.270 8.777637
68.275 8.948627
68.280 9.19422
68.285 8.867713
68.290 8.778657
68.295 8.612121
68.300 8.810627
68.305 8.81161
68.310 8.155406
68.315 8.31008
68.320 8.411084
68.325 8.340208
68.330 8.084907
68.335 7.817733
68.340 7.792222
68.345 8.259995
68.350 8.339901
68.355 8.255917
68.360 8.365399
68.365 8.316509
68.370 8.594893
68.375 8.730762
68.380 8.671486
68.385 8.604762
68.390 8.441046
68.395 8.453079
68.400 8.755255
68.405 8.828656
68.410 8.908929
68.415 9.256717
68.420 8.89045
68.425 9.249188
68.430 9.232136
68.435 9.168413
68.440 9.065463
68.445 9.142528
68.450 9.029614
68.455 9.19385
68.460 9.073805
68.465 8.947407
68.470 8.644482
68.475 8.740539
68.480 8.587516
68.485 8.536493
68.490 8.607951
68.495 8.355983
68.500 8.263009
68.505 8.373683
68.510 8.047058
68.515 7.938692
68.520 7.562865
68.525 7.815813
68.530 8.104787
68.535 8.770852
68.540 8.686371
68.545 8.838481
68.550 9.093839
68.555 9.584989
68.560 9.611814
68.565 9.79923
68.570 9.736764
68.575 9.865468
68.580 9.639389
68.585 9.724534
68.590 9.569752
68.595 9.18339
68.600 9.061879
68.605 8.930901
68.610 8.609706
68.615 8.717896
68.620 8.776913
68.625 9.012636
68.630 9.531564
68.635 9.417026
68.640 9.668388
68.645 9.862815
68.650 10.435868
68.655 11.155661
68.660 10.987415
68.665 10.809707
68.670 10.609461
68.675 10.19873
68.680 10.111393
68.685 9.525018
68.690 9.139034
68.695 9.513856
68.700 9.550461
68.705 9.813294
68.710 10.227342
68.715 10.143943
68.720 10.147202
68.725 9.626659
68.730 9.442697
68.735 9.335596
68.740 9.100713
68.745 9.017779
68.750 9.153613
68.755 9.06516
68.760 8.880928
68.765 9.00327
68.770 9.37335
68.775 9.566076
68.780 10.062939
68.785 10.013872
68.790 9.900616
68.795 10.275602
68.800 10.283717
68.805 10.430713
68.810 10.523391
68.815 9.98765
68.820 10.012088
68.825 10.239315
68.830 10.666409
68.835 10.382723
68.840 10.197073
68.845 10.247045
68.850 10.199832
68.855 9.911088
68.860 9.70587
68.865 9.534552
68.870 9.840405
68.875 9.756298
68.880 9.710262
68.885 9.891902
68.890 10.2317
68.895 10.311837
68.900 9.797376
68.905 9.894935
68.910 10.117164
68.915 10.39896
68.920 10.574262
68.925 10.776868
68.930 10.901383
68.935 11.244606
68.940 10.987233
68.945 10.589993
68.950 11.014141
68.955 10.752815
68.960 10.611486
68.965 10.682795
68.970 10.989367
68.975 11.228544
68.980 11.428055
68.985 10.912855
68.990 10.981815
68.995 10.966272
69.000 10.86043
69.005 10.510178
69.010 10.447519
69.015 10.536371
69.020 10.474738
69.025 10.732544
69.030 11.040825
69.035 10.933837
69.040 11.631134
69.045 11.575974
69.050 11.892456
69.055 11.913868
69.060 11.905963
69.065 11.876887
69.070 11.607313
69.075 11.183429
69.080 10.984202
69.085 10.771892
69.090 11.000833
69.095 10.776471
69.100 11.022509
69.105 11.135756
69.110 11.132714
69.115 11.02721
69.120 10.948238
69.125 10.676903
69.130 10.749226
69.135 10.551452
69.140 11.311773
69.145 11.411226
69.150 11.753372
69.155 12.001637
69.160 12.089297
69.165 11.695386
69.170 11.444654
69.175 11.239828
69.180 11.251959
69.185 11.077811
69.190 10.820798
69.195 10.897149
69.200 11.284984
69.205 11.141796
69.210 11.169107
69.215 11.607084
69.220 11.943973
69.225 12.442096
69.230 12.614748
69.235 12.907978
69.240 13.030181
69.245 12.66017
69.250 12.787131
69.255 12.795592
69.260 12.304889
69.265 11.908048
69.270 12.035602
69.275 12.099534
69.280 11.459178
69.285 10.807812
69.290 11.149034
69.295 11.472244
69.300 11.347268
69.305 10.622621
69.310 10.920339
69.315 11.53862
69.320 11.31848
69.325 10.719089
69.330 10.668656
69.335 10.893484
69.340 10.987315
69.345 10.590486
69.350 10.207255
69.355 10.506733
69.360 10.33405
69.365 10.36744
69.370 9.935516
69.375 9.882469
69.380 10.073153
69.385 10.539198
69.390 10.782154
69.395 10.980612
69.400 10.936193
69.405 11.086576
69.410 11.075493
69.415 10.504029
69.420 9.990519
69.425 9.533998
69.430 9.672283
69.435 10.071939
69.440 9.995412
69.445 10.123864
69.450 10.428237
69.455 10.283412
69.460 10.291828
69.465 10.345281
69.470 10.121619
69.475 10.226264
69.480 9.973582
69.485 10.07582
69.490 10.273567
69.495 10.078526
69.500 9.818892
69.505 9.991321
69.510 10.277434
69.515 10.636582
69.520 10.830772
69.525 11.309051
69.530 11.409088
69.535 11.350864
69.540 11.433091
69.545 11.511501
69.550 11.434027
69.555 10.986533
69.560 10.404571
69.565 10.41161
69.570 10.376298
69.575 10.494508
69.580 10.328218
69.585 10.474807
69.590 10.556391
69.595 10.381652
69.600 10.526803
69.605 10.605024
69.610 10.127407
69.615 9.784408
69.620 9.728271
69.625 10.039156
69.630 10.114167
69.635 10.088861
69.640 9.890652
69.645 9.743929
69.650 9.644023
69.655 9.479872
69.660 9.550691
69.665 9.656228
69.670 9.381561
69.675 9.514709
69.680 9.711768
69.685 10.000102
69.690 9.743166
69.695 9.786775
69.700 9.908709
69.705 10.151235
69.710 10.082989
69.715 10.038587
69.720 10.08287
69.725 9.955165
69.730 9.697654
69.735 9.428308
69.740 9.380698
69.745 9.191189
69.750 8.940296
69.755 8.451428
69.760 8.379691
69.765 8.568769
69.770 8.942296
69.775 8.629913
69.780 8.55864
69.785 8.592083
69.790 8.729659
69.795 8.43219
69.800 8.195125
69.805 7.906549
69.810 7.908077
69.815 8.062987
69.820 8.377158
69.825 8.690364
69.830 8.756511
69.835 8.919538
69.840 8.70415
69.845 8.818444
69.850 8.949463
69.855 8.78837
69.860 8.589468
69.865 8.269752
69.870 8.141723
69.875 8.929057
69.880 8.858369
69.885 8.819554
69.890 9.141099
69.895 9.413646
69.900 9.805955
69.905 10.023263
69.910 9.917295
69.915 9.574906
69.920 9.213284
69.925 9.025773
69.930 8.806291
69.935 8.864461
69.940 8.837949
69.945 9.22422
69.950 9.939454
69.955 10.083041
69.960 9.787158
69.965 9.896037
69.970 9.461692
69.975 9.241597
69.980 8.666991
69.985 8.163137
69.990 8.496035
69.995 8.957073
70.000 8.920246
70.005 9.099695
70.010 9.400858
70.015 9.517737
70.020 9.989135
70.025 9.987773
70.030 9.920076
70.035 10.068471
70.040 9.619847
70.045 9.099495
70.050 8.724933
70.055 8.574667
70.060 8.423154
70.065 8.495156
70.070 8.25918
70.075 8.389971
70.080 8.962435
70.085 9.090547
70.090 8.939745
70.095 8.892263
70.100 8.828149
70.105 9.160136
70.110 9.427167
70.115 9.114334
70.120 9.429088
70.125 9.728943
70.130 9.79729
70.135 9.556872
70.140 9.87185
70.145 9.608016
70.150 9.521821
70.155 9.397287
70.160 9.461058
70.165 9.435041
70.170 9.424447
70.175 9.100613
70.180 9.76656
70.185 10.127339
70.190 9.816405
70.195 9.818283
70.200 10.179095
70.205 10.029163
70.210 10.117471
70.215 9.891787
70.220 9.643638
70.225 9.53884
70.230 9.044954
70.235 9.015848
70.240 9.039028
70.245 9.140798
70.250 8.932268
70.255 9.108093
70.260 9.598061
70.265 9.723757
70.270 9.585975
70.275 9.831204
70.280 9.812217
70.285 9.752942
70.290 9.311845
70.295 8.976614
70.300 9.009846
70.305 9.15589
70.310 9.096674
70.315 9.391447
70.320 9.526287
70.325 9.625015
70.330 9.695477
70.335 9.590528
70.340 9.500718
70.345 9.707993
70.350 9.112368
70.355 9.238002
70.360 9.734092
70.365 9.672611
70.370 10.136986
70.375 10.065589
70.380 10.282756
70.385 10.948572
70.390 10.904615
70.395 10.624828
70.400 10.776159
70.405 11.04023
70.410 10.950481
70.415 10.662983
70.420 10.114641
70.425 9.740332
70.430 9.639439
70.435 9.455909
70.440 9.231771
70.445 9.262197
70.450 9.138947
70.455 9.414347
70.460 9.78718
70.465 10.34846
70.470 10.427151
70.475 10.361691
70.480 10.409659
70.485 10.768654
70.490 10.425265
70.495 10.216531
70.500 9.787189
70.505 9.735545
70.510 10.061255
70.515 9.682958
70.520 9.455963
70.525 9.413273
70.530 9.534201
70.535 9.714717
70.540 9.567636
70.545 8.854385
70.550 9.139558
70.555 9.192994
70.560 9.164605
70.565 8.934041
70.570 8.962487
70.575 9.14274
70.580 9.214076
70.585 8.900874
70.590 9.134892
70.595 9.074674
70.600 8.921411
70.605 8.552815
70.610 8.439135
70.615 8.790242
70.620 9.289271
70.625 9.56616
70.630 9.915604
70.635 9.945007
70.640 10.235089
70.645 10.572069
70.650 10.24396
70.655 9.956359
70.660 9.630688
70.665 9.519176
70.670 9.53055
70.675 9.358829
70.680 9.163385
70.685 9.612067
70.690 9.786829
70.695 10.093864
70.700 9.987354
70.705 9.888287
70.710 9.812934
70.715 9.739222
70.720 9.693286
70.725 9.591872
70.730 9.7634
70.735 9.578572
70.740 9.513597
70.745 9.585653
70.750 9.1347
70.755 9.240263
70.760 8.933284
70.765 8.51981
70.770 8.588792
70.775 8.430187
70.780 8.637966
70.785 9.064679
70.790 8.711779
70.795 8.645138
70.800 8.710422
70.805 8.907819
70.810 9.167437
70.815 9.038069
70.820 9.176035
70.825 8.952927
70.830 9.149639
70.835 9.097712
70.840 9.016416
70.845 8.703837
70.850 8.225469
70.855 7.826274
70.860 8.117075
70.865 8.44316
70.870 8.939104
70.875 9.523582
70.880 9.848398
70.885 10.039951
70.890 10.312932
70.895 10.11948
70.900 9.54009
70.905 9.157822
70.910 8.830532
70.915 8.751799
70.920 9.137761
70.925 8.994102
70.930 8.857924
70.935 9.081416
70.940 8.751789
70.945 8.641664
70.950 8.219494
70.955 7.722072
70.960 8.105276
70.965 8.21376
70.970 8.395358
70.975 8.527792
70.980 8.959913
70.985 9.395035
70.990 9.099339
70.995 8.667658
71.000 8.334524
71.005 8.085343
71.010 7.904469
71.015 7.732191
71.020 7.837001
71.025 8.274826
71.030 8.116179
71.035 8.263001
71.040 8.690458
71.045 8.64437
71.050 8.675697
71.055 8.981449
71.060 9.003187
71.065 8.795881
71.070 8.830157
71.075 8.890974
71.080 8.968987
71.085 8.939611
71.090 8.368233
71.095 8.563796
71.100 9.182368
71.105 8.934965
71.110 8.59906
71.115 8.305031
71.120 8.474591
71.125 8.862276
71.130 8.829835
71.135 8.631555
71.140 8.416059
71.145 8.416286
71.150 8.920774
71.155 8.802098
71.160 8.428181
71.165 8.321122
71.170 8.814154
71.175 8.93079
71.180 9.11829
71.185 9.058327
71.190 9.182836
71.195 9.351391
71.200 9.173297
71.205 9.158217
71.210 9.401834
71.215 9.028688
71.220 8.636038
71.225 8.251185
71.230 8.204952
71.235 8.59701
71.240 8.225472
71.245 8.36253
71.250 8.649338
71.255 8.905574
71.260 9.339327
71.265 9.67412
71.270 9.283545
71.275 9.583014
71.280 9.379524
71.285 9.25608
71.290 9.109802
71.295 8.85281
71.300 8.915736
71.305 9.01202
71.310 8.337431
71.315 8.198809
71.320 8.339401
71.325 8.601804
71.330 8.620784
71.335 8.182743
71.340 8.228358
71.345 8.399957
71.350 8.235909
71.355 8.271091
71.360 7.849463
71.365 7.600414
71.370 7.511355
71.375 7.674936
71.380 7.853691
71.385 7.798301
71.390 7.673749
71.395 8.038547
71.400 8.1019
71.405 8.401792
71.410 8.84219
71.415 8.846793
71.420 9.018737
71.425 9.10729
71.430 8.557655
71.435 8.2657
71.440 8.304616
71.445 7.951559
71.450 7.906427
71.455 8.027966
71.460 8.317792
71.465 9.004662
71.470 9.327806
71.475 9.118563
71.480 9.470241
71.485 10.004316
71.490 10.157789
71.495 10.09518
71.500 10.010312
71.505 10.256833
71.510 10.546247
71.515 10.587524
71.520 10.176746
71.525 9.5735
71.530 9.625692
71.535 9.397105
71.540 9.013426
71.545 8.656662
71.550 8.125742
71.555 8.131757
71.560 8.664552
71.565 8.611318
71.570 8.67577
71.575 9.029976
71.580 8.896446
71.585 8.998134
71.590 8.939941
71.595 8.550047
71.600 8.235539
71.605 8.422338
71.610 8.392009
71.615 8.43141
71.620 8.603947
71.625 8.790255
71.630 8.973976
71.635 9.0722
71.640 8.781581
71.645 9.048526
71.650 9.019769
71.655 8.576036
71.660 8.499362
71.665 8.757797
71.670 8.697984
71.675 8.547726
71.680 8.9857
71.685 9.344274
71.690 9.877629
71.695 9.819082
71.700 10.114492
71.705 10.189455
71.710 9.955084
71.715 9.467614
71.720 9.607463
71.725 9.255395
71.730 8.752997
71.735 8.632843
71.740 8.603068
71.745 8.241426
71.750 8.382325
71.755 8.444161
71.760 9.050904
71.765 9.097846
71.770 8.988529
71.775 9.166344
71.780 9.549726
71.785 9.406346
71.790 9.049891
71.795 8.883185
71.800 9.024981
71.805 8.757547
71.810 8.782752
71.815 8.555442
71.820 8.43719
71.825 8.306273
71.830 8.293158
71.835 8.717546
71.840 9.512867
71.845 9.452385
71.850 9.46738
71.855 9.600553
71.860 9.52695
71.865 9.187078
71.870 8.216481
71.875 7.722877
71.880 7.750512
71.885 7.966434
71.890 8.104883
71.895 7.987849
71.900 8.386623
71.905 8.784203
71.910 9.195052
71.915 8.969127
71.920 8.803093
71.925 9.291808
71.930 9.420383
71.935 9.202091
71.940 9.241481
71.945 9.014471
71.950 9.15171
71.955 9.023008
71.960 9.12225
71.965 8.787334
71.970 8.704773
71.975 8.645743
71.980 9.061534
71.985 9.316619
71.990 8.921457
71.995 8.640025
72.000 9.163713
72.005 9.199482
72.010 8.971348
72.015 8.64105
72.020 8.492472
72.025 8.519942
72.030 8.590553
72.035 8.345678
72.040 7.98397
72.045 7.911539
72.050 7.91907
72.055 8.091601
72.060 8.460979
72.065 8.72926
72.070 9.213727
72.075 9.815378
72.080 10.108819
72.085 10.104432
72.090 10.304842
72.095 10.355119
72.100 9.88557
72.105 9.308635
72.110 8.832422
72.115 8.73844
72.120 8.763468
72.125 8.534338
72.130 8.410929
72.135 8.607287
72.140 9.116463
72.145 9.119903
72.150 9.233052
72.155 8.896632
72.160 8.871654
72.165 8.707
72.170 8.520976
72.175 8.044304
72.180 8.210938
72.185 7.9331
72.190 8.120733
72.195 8.14449
72.200 8.403601
72.205 8.736082
72.210 8.940107
72.215 8.81887
72.220 8.441566
72.225 8.169566
72.230 8.297024
72.235 8.255064
72.240 7.958559
72.245 7.981049
72.250 8.450329
72.255 8.507246
72.260 8.384208
72.265 8.249957
72.270 8.264674
72.275 8.289407
72.280 8.299874
72.285 8.707641
72.290 9.302999
72.295 9.365491
72.300 9.200882
72.305 9.324071
72.310 9.395637
72.315 9.374187
72.320 9.458684
72.325 9.469826
72.330 9.697609
72.335 9.846658
72.340 9.786257
72.345 9.631355
72.350 9.424623
72.355 9.092641
72.360 9.145914
72.365 9.145994
72.370 8.96857
72.375 9.336474
72.380 9.83463
72.385 9.403549
72.390 8.72405
72.395 8.835695
72.400 8.868008
72.405 8.958662
72.410 9.088135
72.415 9.216545
72.420 9.355353
72.425 9.564878
72.430 9.857774
72.435 9.960849
72.440 9.8074
72.445 8.833927
72.450 8.719609
72.455 9.262753
72.460 9.013288
72.465 8.384145
72.470 7.923645
72.475 8.045892
72.480 8.365752
72.485 8.360477
72.490 8.128826
72.495 7.912407
72.500 8.110344
72.505 8.521883
72.510 8.684599
72.515 8.715384
72.520 8.446708
72.525 8.538746
72.530 8.649312
72.535 8.565315
72.540 8.369463
72.545 8.499332
72.550 8.388623
72.555 8.419352
72.560 8.513579
72.565 8.81377
72.570 9.048231
72.575 9.09724
72.580 9.157571
72.585 9.531864
72.590 9.73975
72.595 9.657066
72.600 9.322326
72.605 8.850168
72.610 8.650435
72.615 8.686522
72.620 8.696104
72.625 8.525203
72.630 8.613218
72.635 8.841822
72.640 9.04745
72.645 8.847357
72.650 8.82349
72.655 9.087864
72.660 9.578015
72.665 9.622891
72.670 9.477008
72.675 9.489849
72.680 9.815611
72.685 9.565426
72.690 9.373342
72.695 8.931899
72.700 8.722322
72.705 8.969474
72.710 9.17182
72.715 9.105659
72.720 9.207207
72.725 9.15452
72.730 9.396725
72.735 9.599458
72.740 9.055819
72.745 8.647175
72.750 8.418621
72.755 7.875459
72.760 7.496256
72.765 7.310553
72.770 7.193478
72.775 7.269101
72.780 7.197071
72.785 7.498479
72.790 7.889476
72.795 8.34922
72.800 8.566754
72.805 8.804605
72.810 9.146276
72.815 8.906594
72.820 8.762218
72.825 8.327906
72.830 8.178613
72.835 8.298091
72.840 8.052336
72.845 8.22705
72.850 8.309721
72.855 8.009164
72.860 8.335469
72.865 8.300235
72.870 8.33209
72.875 8.54536
72.880 8.428928
72.885 8.857903
72.890 9.343044
72.895 9.382695
72.900 9.335279
72.905 8.940759
72.910 9.132588
72.915 9.063014
72.920 9.131857
72.925 8.404543
72.930 8.249848
72.935 8.258408
72.940 8.384255
72.945 8.371302
72.950 8.078126
72.955 8.148151
72.960 8.616709
72.965 8.763671
72.970 9.116235
72.975 9.061039
72.980 8.96164
72.985 9.427928
72.990 9.365277
72.995 9.239017
73.000 9.029482
