!@!!GADDS PLOTSO FILE: Chi integration type
!@!!Title/SampleName: map-12d
!@!!Comment: ?
!@!!User: Bruker Instrument Administrator
!@!!Site: University of Illinois Chicago
!@!!Frame: map-12d_01_000.gfrm
!@!!Wavelengths    1.54184   1.54056   1.54439
!@!!Frame angles: 2Theta: 63.000 Omega: 50.000 Phi: 0.000 Chi: 90.000
!@!!Integration range: 2Theta: 53.000 to 73.000  Gamma: -105.000 to -75.000
!@!!Integration method: bin normalized
!@!N
!@!SS
!@!M
!@!L 0.0 0.0 0.0 0.0
!@!XDegrees
!@!YCounts
53.000 3.110656
53.005 2.923053
53.010 3.227485
53.015 3.591776
53.020 3.681741
53.025 3.6253
53.030 3.804398
53.035 4.206801
53.040 4.506611
53.045 4.254908
53.050 4.111293
53.055 4.05965
53.060 3.937849
53.065 3.855038
53.070 3.808956
53.075 3.671615
53.080 4.105785
53.085 4.085154
53.090 4.201468
53.095 4.318455
53.100 4.329987
53.105 4.149759
53.110 4.454316
53.115 4.376659
53.120 4.798078
53.125 5.015246
53.130 5.060136
53.135 4.995604
53.140 4.588574
53.145 4.267979
53.150 3.951218
53.155 3.512734
53.160 3.267832
53.165 3.144976
53.170 3.45885
53.175 3.641233
53.180 3.417253
53.185 3.450709
53.190 3.2577
53.195 3.154667
53.200 3.202653
53.205 3.11673
53.210 3.174475
53.215 3.397637
53.220 3.476293
53.225 3.539373
53.230 3.556066
53.235 3.533868
53.240 3.499036
53.245 3.624579
53.250 3.725292
53.255 4.033064
53.260 4.096396
53.265 4.15231
53.270 4.633482
53.275 4.714686
53.280 4.477237
53.285 4.4355
53.290 4.821729
53.295 5.165011
53.300 4.788409
53.305 4.36101
53.310 4.357191
53.315 4.601354
53.320 4.122204
53.325 3.506384
53.330 3.230913
53.335 2.859754
53.340 2.868189
53.345 2.825696
53.350 2.754227
53.355 2.731877
53.360 2.786521
53.365 3.089934
53.370 3.569437
53.375 3.813473
53.380 4.009887
53.385 4.257821
53.390 4.61048
53.395 4.806962
53.400 4.637907
53.405 4.286954
53.410 4.133783
53.415 3.954415
53.420 3.901122
53.425 3.692646
53.430 3.852177
53.435 4.129636
53.440 4.171316
53.445 4.196774
53.450 4.075964
53.455 4.178389
53.460 3.884832
53.465 3.47323
53.470 3.492159
53.475 3.630282
53.480 3.579898
53.485 3.602666
53.490 3.555223
53.495 3.441872
53.500 3.555363
53.505 3.317871
53.510 3.294983
53.515 3.319884
53.520 3.168629
53.525 3.174293
53.530 3.358695
53.535 3.422686
53.540 3.275634
53.545 3.189112
53.550 3.266259
53.555 3.386718
53.560 3.482831
53.565 3.442548
53.570 3.567594
53.575 3.829062
53.580 3.955222
53.585 3.976665
53.590 4.011678
53.595 3.940221
53.600 4.078202
53.605 3.929969
53.610 4.005728
53.615 3.74016
53.620 3.836382
53.625 3.848399
53.630 3.87458
53.635 3.98215
53.640 4.043677
53.645 4.095942
53.650 4.133097
53.655 3.991589
53.660 3.880465
53.665 3.887662
53.670 3.979351
53.675 3.823015
53.680 3.545753
53.685 3.49871
53.690 3.679568
53.695 3.770815
53.700 3.678379
53.705 3.807628
53.710 3.909564
53.715 4.240841
53.720 4.181278
53.725 4.33504
53.730 4.363938
53.735 4.265938
53.740 4.064397
53.745 4.019148
53.750 4.012947
53.755 3.909262
53.760 3.801772
53.765 4.00419
53.770 3.844989
53.775 3.861368
53.780 3.98052
53.785 4.104867
53.790 4.172884
53.795 4.166701
53.800 3.815825
53.805 3.832222
53.810 3.666335
53.815 3.701006
53.820 3.670928
53.825 3.537204
53.830 3.391974
53.835 3.561155
53.840 3.600789
53.845 3.551053
53.850 3.388596
53.855 3.26661
53.860 3.429823
53.865 3.512202
53.870 3.704114
53.875 3.793447
53.880 3.711765
53.885 3.496728
53.890 3.323165
53.895 3.01533
53.900 3.00268
53.905 2.942985
53.910 2.881205
53.915 3.319948
53.920 3.534985
53.925 3.826994
53.930 3.980572
53.935 3.951321
53.940 3.993508
53.945 3.972922
53.950 3.74471
53.955 3.647957
53.960 3.418961
53.965 3.46138
53.970 3.25476
53.975 3.140869
53.980 3.01884
53.985 2.970527
53.990 3.014387
53.995 2.8263
54.000 2.916927
54.005 3.008868
54.010 3.303635
54.015 3.528906
54.020 3.764205
54.025 4.021993
54.030 4.309172
54.035 4.182096
54.040 4.028316
54.045 3.723706
54.050 3.555065
54.055 3.185889
54.060 2.952847
54.065 2.752743
54.070 2.806708
54.075 2.89739
54.080 3.010398
54.085 3.172662
54.090 3.419433
54.095 3.769161
54.100 4.002073
54.105 4.189583
54.110 4.027887
54.115 3.944879
54.120 3.585674
54.125 3.608228
54.130 3.804215
54.135 3.423596
54.140 3.349337
54.145 3.313983
54.150 3.368567
54.155 3.595256
54.160 3.227216
54.165 3.143369
54.170 3.360704
54.175 3.151713
54.180 3.045341
54.185 2.868745
54.190 2.65999
54.195 2.401118
54.200 2.39162
54.205 2.322026
54.210 2.534739
54.215 2.590555
54.220 2.725243
54.225 2.874414
54.230 3.052668
54.235 3.202324
54.240 3.571521
54.245 3.591381
54.250 3.671263
54.255 3.839516
54.260 4.019862
54.265 3.862564
54.270 3.888285
54.275 3.921391
54.280 4.233074
54.285 4.457885
54.290 4.248502
54.295 4.313507
54.300 4.385777
54.305 4.127765
54.310 3.913799
54.315 3.632488
54.320 3.612004
54.325 3.768698
54.330 3.530391
54.335 3.678061
54.340 3.588714
54.345 3.438445
54.350 3.640948
54.355 3.851227
54.360 3.80596
54.365 3.697539
54.370 3.265752
54.375 3.473757
54.380 3.653662
54.385 3.489569
54.390 3.103644
54.395 3.234254
54.400 3.600049
54.405 3.966061
54.410 3.814766
54.415 3.917993
54.420 4.202571
54.425 4.104474
54.430 3.869585
54.435 3.805133
54.440 3.843555
54.445 3.792894
54.450 3.352758
54.455 3.069918
54.460 3.074307
54.465 2.97958
54.470 2.745624
54.475 2.684884
54.480 2.569604
54.485 2.875419
54.490 3.193203
54.495 3.322841
54.500 3.465167
54.505 3.669504
54.510 3.838476
54.515 4.279531
54.520 4.099086
54.525 4.063274
54.530 4.398752
54.535 4.355647
54.540 4.241899
54.545 3.910423
54.550 3.911706
54.555 3.947566
54.560 3.707089
54.565 3.55384
54.570 3.521884
54.575 3.942759
54.580 3.647315
54.585 3.398663
54.590 3.226367
54.595 3.201371
54.600 3.1351
54.605 3.022455
54.610 2.853786
54.615 3.141459
54.620 3.224812
54.625 3.223241
54.630 3.057072
54.635 3.029653
54.640 3.060036
54.645 3.060973
54.650 2.904746
54.655 2.765262
54.660 3.071602
54.665 3.28609
54.670 3.401672
54.675 3.304351
54.680 3.352019
54.685 3.233871
54.690 3.232416
54.695 3.305554
54.700 3.398422
54.705 3.284816
54.710 3.230522
54.715 3.008716
54.720 3.084909
54.725 3.326446
54.730 3.447323
54.735 3.223968
54.740 3.320367
54.745 3.327863
54.750 3.528103
54.755 3.79166
54.760 3.56253
54.765 3.441743
54.770 3.381339
54.775 3.395359
54.780 3.354482
54.785 3.605577
54.790 3.392407
54.795 3.571322
54.800 3.661375
54.805 3.766634
54.810 3.695226
54.815 3.785751
54.820 3.565082
54.825 3.543157
54.830 3.530527
54.835 3.453198
54.840 3.402045
54.845 3.521028
54.850 3.630996
54.855 3.738446
54.860 3.639515
54.865 3.533625
54.870 3.673596
54.875 3.807402
54.880 3.8563
54.885 3.703136
54.890 3.884895
54.895 3.999407
54.900 3.852295
54.905 3.742261
54.910 3.533723
54.915 3.510917
54.920 3.440397
54.925 3.368545
54.930 3.324826
54.935 3.299954
54.940 3.133913
54.945 3.234066
54.950 3.365432
54.955 3.227992
54.960 3.136742
54.965 3.376252
54.970 3.826902
54.975 4.051188
54.980 4.171122
54.985 4.26888
54.990 4.112053
54.995 4.106367
55.000 3.889667
55.005 3.524807
55.010 3.399805
55.015 3.236073
55.020 3.209067
55.025 3.35747
55.030 3.339247
55.035 3.53142
55.040 4.055802
55.045 4.062646
55.050 3.916954
55.055 3.93307
55.060 3.76408
55.065 3.481843
55.070 3.257185
55.075 3.257376
55.080 3.379462
55.085 3.351692
55.090 3.347782
55.095 3.813878
55.100 4.188035
55.105 4.330048
55.110 4.338797
55.115 4.368997
55.120 4.562752
55.125 4.598714
55.130 4.345667
55.135 4.403463
55.140 4.000118
55.145 3.550672
55.150 3.456012
55.155 3.487047
55.160 3.496935
55.165 3.679637
55.170 3.498105
55.175 3.633545
55.180 3.761436
55.185 3.699618
55.190 3.47007
55.195 3.011772
55.200 2.739278
55.205 2.687302
55.210 2.777117
55.215 2.82504
55.220 2.840173
55.225 2.847996
55.230 3.054506
55.235 3.228341
55.240 3.045164
55.245 3.002422
55.250 3.196004
55.255 3.06619
55.260 3.305017
55.265 3.499243
55.270 3.501797
55.275 3.885281
55.280 4.09255
55.285 4.073385
55.290 4.191381
55.295 3.987607
55.300 3.980436
55.305 3.7518
55.310 3.538702
55.315 3.239191
55.320 2.909097
55.325 2.804261
55.330 2.84026
55.335 2.712705
55.340 2.912141
55.345 2.918865
55.350 3.072617
55.355 3.321714
55.360 3.270426
55.365 2.93853
55.370 3.069517
55.375 2.991975
55.380 2.851595
55.385 2.597325
55.390 2.510128
55.395 2.71595
55.400 2.768653
55.405 2.612712
55.410 2.656265
55.415 2.946052
55.420 3.254427
55.425 3.548085
55.430 3.753161
55.435 3.748232
55.440 3.638819
55.445 3.715658
55.450 3.512676
55.455 3.428242
55.460 2.930981
55.465 2.771096
55.470 3.111469
55.475 3.253844
55.480 3.204504
55.485 3.106861
55.490 3.513374
55.495 4.090838
55.500 3.92582
55.505 3.754641
55.510 3.50381
55.515 3.427703
55.520 3.337766
55.525 3.038022
55.530 3.111624
55.535 3.463565
55.540 3.540548
55.545 3.854121
55.550 4.231127
55.555 4.331245
55.560 4.268843
55.565 4.168554
55.570 4.148805
55.575 4.070299
55.580 3.895738
55.585 3.851217
55.590 3.938559
55.595 3.887512
55.600 3.707083
55.605 3.56331
55.610 3.682633
55.615 3.592242
55.620 3.603675
55.625 3.541424
55.630 3.54488
55.635 3.467794
55.640 3.32214
55.645 3.05795
55.650 3.135927
55.655 3.065877
55.660 2.972029
55.665 2.872333
55.670 3.03429
55.675 3.237956
55.680 3.250288
55.685 3.062737
55.690 2.931145
55.695 2.852933
55.700 2.967524
55.705 3.1002
55.710 3.219644
55.715 3.201384
55.720 3.284894
55.725 3.466379
55.730 3.539758
55.735 3.295466
55.740 3.119288
55.745 3.476278
55.750 3.796958
55.755 3.874052
55.760 3.954695
55.765 3.936868
55.770 3.989938
55.775 4.117134
55.780 3.525655
55.785 3.232091
55.790 3.116681
55.795 2.899651
55.800 3.021616
55.805 3.064763
55.810 2.789377
55.815 2.865
55.820 2.872264
55.825 2.913741
55.830 2.932236
55.835 2.858625
55.840 2.922935
55.845 3.064067
55.850 3.194825
55.855 3.245195
55.860 3.292919
55.865 3.776582
55.870 3.847914
55.875 3.68328
55.880 3.514587
55.885 3.483363
55.890 3.498736
55.895 3.332108
55.900 3.091521
55.905 3.165898
55.910 3.221508
55.915 3.211847
55.920 3.273602
55.925 3.161598
55.930 2.976167
55.935 2.689108
55.940 2.64295
55.945 2.805961
55.950 3.245566
55.955 3.209592
55.960 3.382945
55.965 3.452165
55.970 3.35564
55.975 3.446994
55.980 3.239946
55.985 2.87482
55.990 2.851188
55.995 2.996982
56.000 3.23452
56.005 3.284235
56.010 3.273162
56.015 3.244061
56.020 3.342816
56.025 3.316761
56.030 3.245125
56.035 3.117392
56.040 3.112281
56.045 2.8851
56.050 3.072599
56.055 3.211142
56.060 3.144873
56.065 3.05234
56.070 3.210343
56.075 3.253702
56.080 3.68675
56.085 3.736654
56.090 3.583057
56.095 3.657407
56.100 4.010208
56.105 3.958261
56.110 4.041937
56.115 3.811123
56.120 3.503608
56.125 3.55564
56.130 3.447396
56.135 3.169694
56.140 3.060247
56.145 2.883995
56.150 2.901454
56.155 2.964407
56.160 3.01198
56.165 3.112845
56.170 3.075043
56.175 3.289199
56.180 3.274411
56.185 3.122562
56.190 3.241748
56.195 3.394945
56.200 3.38586
56.205 3.532387
56.210 3.52836
56.215 3.469635
56.220 3.678318
56.225 3.515592
56.230 3.584376
56.235 3.611547
56.240 3.510949
56.245 3.506056
56.250 3.711057
56.255 3.88536
56.260 3.930672
56.265 3.837
56.270 4.08133
56.275 4.117155
56.280 4.060059
56.285 3.953692
56.290 4.03938
56.295 4.024962
56.300 4.081727
56.305 3.700845
56.310 3.700743
56.315 3.756284
56.320 3.669986
56.325 3.324752
56.330 3.02053
56.335 3.012734
56.340 3.282943
56.345 3.297185
56.350 3.159985
56.355 3.169178
56.360 3.501397
56.365 3.744734
56.370 3.628646
56.375 3.401802
56.380 3.330218
56.385 3.301345
56.390 3.275441
56.395 3.285063
56.400 3.432106
56.405 3.547326
56.410 3.67295
56.415 3.710694
56.420 3.64536
56.425 3.484946
56.430 3.104988
56.435 2.860784
56.440 2.529922
56.445 2.505213
56.450 2.467369
56.455 2.53013
56.460 2.440381
56.465 2.70945
56.470 3.057424
56.475 3.270641
56.480 3.182159
56.485 3.222752
56.490 3.633382
56.495 4.210892
56.500 4.071605
56.505 3.989728
56.510 3.931059
56.515 4.047698
56.520 3.824165
56.525 3.410872
56.530 2.987077
56.535 3.071493
56.540 3.063942
56.545 3.237967
56.550 3.313787
56.555 3.57591
56.560 3.677815
56.565 3.914216
56.570 4.090104
56.575 3.930252
56.580 3.763236
56.585 3.479133
56.590 3.26912
56.595 3.247532
56.600 2.857848
56.605 2.641527
56.610 2.505378
56.615 2.585314
56.620 3.026757
56.625 3.060824
56.630 3.155476
56.635 3.473314
56.640 3.427993
56.645 3.530211
56.650 3.608188
56.655 3.430621
56.660 3.785732
56.665 3.71875
56.670 3.488858
56.675 3.435455
56.680 3.588101
56.685 3.593193
56.690 3.526048
56.695 3.434129
56.700 3.79659
56.705 4.087959
56.710 4.328158
56.715 4.143371
56.720 4.036942
56.725 4.099099
56.730 3.953772
56.735 3.767823
56.740 3.951056
56.745 4.000603
56.750 4.321801
56.755 4.413687
56.760 4.320699
56.765 4.314697
56.770 4.320813
56.775 4.097206
56.780 3.900021
56.785 3.734217
56.790 3.607352
56.795 3.732951
56.800 3.663779
56.805 3.497788
56.810 3.575871
56.815 3.623742
56.820 3.580083
56.825 3.689398
56.830 3.626713
56.835 3.663197
56.840 3.714657
56.845 3.833245
56.850 3.702954
56.855 3.703404
56.860 3.779845
56.865 4.046166
56.870 3.885506
56.875 3.837725
56.880 3.693677
56.885 3.79117
56.890 3.90611
56.895 3.614172
56.900 3.449885
56.905 3.395425
56.910 3.170901
56.915 3.363005
56.920 3.522023
56.925 3.649513
56.930 3.869456
56.935 3.642281
56.940 3.598708
56.945 3.701371
56.950 3.405722
56.955 3.244022
56.960 3.186359
56.965 3.407083
56.970 3.583339
56.975 3.732496
56.980 3.817955
56.985 3.991985
56.990 4.038693
56.995 3.879051
57.000 3.619822
57.005 3.692905
57.010 3.548562
57.015 3.521735
57.020 3.378968
57.025 3.416068
57.030 3.551632
57.035 3.36037
57.040 3.16251
57.045 3.314589
57.050 3.259229
57.055 3.220026
57.060 3.100083
57.065 2.921297
57.070 2.951981
57.075 3.040568
57.080 3.191919
57.085 2.953715
57.090 2.919699
57.095 2.723164
57.100 2.797003
57.105 2.987772
57.110 2.775442
57.115 2.601096
57.120 2.843799
57.125 2.964733
57.130 3.558592
57.135 3.643157
57.140 3.688714
57.145 3.839603
57.150 3.904934
57.155 3.956131
57.160 4.076355
57.165 3.934036
57.170 3.894389
57.175 3.67914
57.180 3.689121
57.185 3.682432
57.190 3.711051
57.195 3.598261
57.200 3.281501
57.205 3.393822
57.210 3.591329
57.215 3.578032
57.220 3.302377
57.225 3.393841
57.230 3.384429
57.235 3.784494
57.240 3.891946
57.245 4.034153
57.250 3.981989
57.255 3.954806
57.260 3.932004
57.265 3.938454
57.270 3.844135
57.275 3.726124
57.280 3.813044
57.285 3.96248
57.290 4.099687
57.295 3.945121
57.300 3.788526
57.305 3.673233
57.310 3.650651
57.315 3.711538
57.320 3.836897
57.325 4.007916
57.330 4.056053
57.335 4.063713
57.340 3.848256
57.345 3.816302
57.350 3.537971
57.355 3.452031
57.360 3.18206
57.365 3.220915
57.370 3.277728
57.375 3.710368
57.380 4.039968
57.385 4.118358
57.390 4.070803
57.395 4.085269
57.400 4.135112
57.405 3.823221
57.410 3.509625
57.415 3.296561
57.420 3.292743
57.425 3.211868
57.430 3.265997
57.435 3.302637
57.440 3.626377
57.445 3.743119
57.450 3.687279
57.455 3.552268
57.460 3.608805
57.465 3.316998
57.470 3.168956
57.475 3.257955
57.480 3.184349
57.485 3.114123
57.490 3.301721
57.495 3.610237
57.500 3.723511
57.505 3.671587
57.510 3.630093
57.515 3.73442
57.520 3.605546
57.525 3.425795
57.530 3.228686
57.535 3.537799
57.540 3.524915
57.545 3.584932
57.550 3.715424
57.555 3.836679
57.560 3.89214
57.565 4.037486
57.570 3.953771
57.575 3.997607
57.580 3.799696
57.585 3.797278
57.590 3.720199
57.595 3.92765
57.600 3.888504
57.605 3.773828
57.610 3.935643
57.615 3.924426
57.620 3.814175
57.625 3.941423
57.630 3.996845
57.635 4.043596
57.640 3.930665
57.645 3.691342
57.650 3.618521
57.655 3.581322
57.660 3.38935
57.665 3.018463
57.670 2.903788
57.675 3.00197
57.680 3.096074
57.685 3.121277
57.690 3.389757
57.695 4.041824
57.700 4.101389
57.705 4.254138
57.710 4.348947
57.715 4.268324
57.720 4.349771
57.725 4.211297
57.730 4.03952
57.735 3.972169
57.740 3.949943
57.745 4.181863
57.750 4.486605
57.755 4.62792
57.760 4.563302
57.765 4.419239
57.770 4.391704
57.775 4.400286
57.780 4.159548
57.785 3.933321
57.790 3.706182
57.795 3.543505
57.800 3.578463
57.805 3.617118
57.810 3.572992
57.815 3.531618
57.820 3.697175
57.825 3.698143
57.830 3.618909
57.835 3.560245
57.840 3.551863
57.845 3.676025
57.850 3.823333
57.855 4.000566
57.860 4.187759
57.865 4.43478
57.870 4.482953
57.875 4.792836
57.880 4.911827
57.885 4.888466
57.890 4.451982
57.895 4.38357
57.900 4.092307
57.905 3.979287
57.910 3.534528
57.915 3.292191
57.920 3.330566
57.925 3.429237
57.930 3.290288
57.935 3.385797
57.940 3.288955
57.945 3.373859
57.950 3.592315
57.955 3.887383
57.960 4.071831
57.965 4.252467
57.970 4.28718
57.975 4.729547
57.980 4.758664
57.985 4.497148
57.990 4.216455
57.995 3.983117
58.000 3.917181
58.005 3.752179
58.010 3.762001
58.015 3.711432
58.020 3.873378
58.025 4.184014
58.030 4.680055
58.035 5.093776
58.040 5.148625
58.045 5.073474
58.050 4.967388
58.055 4.855667
58.060 4.679681
58.065 4.369197
58.070 4.032872
58.075 3.928085
58.080 4.228535
58.085 4.611374
58.090 4.675151
58.095 4.409182
58.100 4.264866
58.105 4.538331
58.110 4.621548
58.115 4.207954
58.120 4.340238
58.125 4.447987
58.130 4.547263
58.135 4.770975
58.140 4.73719
58.145 4.567645
58.150 4.737
58.155 4.517835
58.160 4.378623
58.165 4.369159
58.170 4.173822
58.175 4.174994
58.180 4.193851
58.185 3.919218
58.190 3.894772
58.195 3.92717
58.200 4.039841
58.205 4.13663
58.210 4.222593
58.215 4.489576
58.220 4.488903
58.225 4.538137
58.230 4.426386
58.235 4.203447
58.240 4.202291
58.245 4.098493
58.250 3.497115
58.255 3.463293
58.260 3.432832
58.265 3.488844
58.270 3.786541
58.275 3.710979
58.280 3.918756
58.285 4.349017
58.290 4.256186
58.295 4.155478
58.300 4.053812
58.305 3.94073
58.310 3.956172
58.315 4.052955
58.320 4.068524
58.325 4.2512
58.330 4.516017
58.335 4.800671
58.340 5.010626
58.345 4.989816
58.350 4.731917
58.355 4.598189
58.360 4.589345
58.365 4.475208
58.370 4.402511
58.375 4.146816
58.380 4.013251
58.385 4.049469
58.390 4.057474
58.395 4.036946
58.400 3.892774
58.405 3.660063
58.410 3.775598
58.415 4.013813
58.420 4.21515
58.425 4.525644
58.430 4.859134
58.435 4.939181
58.440 4.871644
58.445 4.555241
58.450 4.525859
58.455 4.670138
58.460 4.67324
58.465 4.646674
58.470 4.695753
58.475 4.829103
58.480 5.168464
58.485 5.154388
58.490 4.682368
58.495 4.43706
58.500 4.189533
58.505 4.100502
58.510 4.091038
58.515 3.667549
58.520 3.420706
58.525 3.56515
58.530 3.641892
58.535 3.796413
58.540 3.827027
58.545 3.907752
58.550 4.210576
58.555 4.484324
58.560 4.259818
58.565 4.150705
58.570 4.079322
58.575 4.243735
58.580 4.10825
58.585 3.941759
58.590 3.93242
58.595 4.2312
58.600 4.600523
58.605 4.669851
58.610 4.480762
58.615 4.678593
58.620 4.626059
58.625 4.744428
58.630 4.795744
58.635 4.200597
58.640 4.028819
58.645 4.159328
58.650 4.035622
58.655 4.130758
58.660 4.030258
58.665 3.722564
58.670 3.999868
58.675 4.407637
58.680 4.485322
58.685 4.55227
58.690 4.568844
58.695 4.6318
58.700 5.00149
58.705 4.948821
58.710 4.644608
58.715 4.685725
58.720 4.632257
58.725 4.661501
58.730 4.494023
58.735 4.506258
58.740 4.396724
58.745 4.561087
58.750 4.579405
58.755 4.831553
58.760 4.929305
58.765 4.889686
58.770 4.538689
58.775 4.805054
58.780 4.597333
58.785 4.715638
58.790 4.601552
58.795 4.404974
58.800 4.317244
58.805 4.496869
58.810 4.232996
58.815 4.029225
58.820 3.810783
58.825 4.016808
58.830 4.229472
58.835 4.375041
58.840 4.231321
58.845 4.550732
58.850 5.016562
58.855 4.979339
58.860 4.614969
58.865 4.335992
58.870 4.254676
58.875 4.410148
58.880 4.274565
58.885 4.14256
58.890 4.01397
58.895 4.368425
58.900 4.551285
58.905 4.493186
58.910 4.618649
58.915 4.570614
58.920 4.576873
58.925 4.509031
58.930 4.461087
58.935 4.683606
58.940 4.944932
58.945 4.850899
58.950 4.928502
58.955 4.839128
58.960 4.849559
58.965 4.714767
58.970 4.436206
58.975 4.53659
58.980 4.581959
58.985 4.619686
58.990 4.751502
58.995 4.759096
59.000 4.680561
59.005 4.729983
59.010 4.506977
59.015 4.379122
59.020 4.114191
59.025 4.224478
59.030 4.269309
59.035 4.366228
59.040 4.609954
59.045 4.592966
59.050 4.687065
59.055 4.838226
59.060 4.849404
59.065 5.01436
59.070 4.784367
59.075 4.834983
59.080 4.850294
59.085 4.588677
59.090 4.655601
59.095 4.63986
59.100 4.775348
59.105 5.052282
59.110 4.934658
59.115 4.944351
59.120 5.047352
59.125 4.795587
59.130 4.585679
59.135 4.476345
59.140 4.361251
59.145 4.188126
59.150 3.879885
59.155 3.915866
59.160 4.26967
59.165 4.524758
59.170 4.573957
59.175 4.480566
59.180 4.332134
59.185 4.357458
59.190 4.532279
59.195 4.42662
59.200 4.39252
59.205 4.229128
59.210 4.499511
59.215 4.943702
59.220 5.377023
59.225 5.319993
59.230 5.114375
59.235 5.078621
59.240 5.022082
59.245 4.638054
59.250 4.16364
59.255 3.662793
59.260 3.472146
59.265 3.411532
59.270 3.498458
59.275 3.463273
59.280 3.293144
59.285 3.390876
59.290 3.484093
59.295 3.399565
59.300 3.513789
59.305 3.443434
59.310 3.613616
59.315 3.912513
59.320 4.152381
59.325 4.444001
59.330 4.772941
59.335 4.768393
59.340 4.569843
59.345 4.512177
59.350 4.367429
59.355 4.134934
59.360 4.038792
59.365 3.945823
59.370 3.756413
59.375 3.944849
59.380 3.653478
59.385 3.694888
59.390 3.774824
59.395 3.720515
59.400 3.497561
59.405 3.568233
59.410 3.600588
59.415 3.898837
59.420 4.022762
59.425 3.787684
59.430 4.171346
59.435 4.309956
59.440 4.292495
59.445 4.088382
59.450 3.750009
59.455 3.647086
59.460 3.972401
59.465 3.578263
59.470 3.248514
59.475 3.470798
59.480 3.811022
59.485 4.077403
59.490 4.240271
59.495 4.053799
59.500 4.221861
59.505 4.281137
59.510 4.22593
59.515 4.268827
59.520 4.353825
59.525 4.251471
59.530 3.939127
59.535 3.997011
59.540 4.037683
59.545 3.802341
59.550 3.557429
59.555 3.450292
59.560 3.562255
59.565 3.789396
59.570 3.684681
59.575 3.613892
59.580 3.534206
59.585 3.489342
59.590 3.473849
59.595 3.729269
59.600 3.795398
59.605 3.954242
59.610 4.128453
59.615 4.299645
59.620 4.329175
59.625 4.419143
59.630 4.25632
59.635 4.116642
59.640 3.999421
59.645 4.133235
59.650 4.217165
59.655 4.215735
59.660 3.918852
59.665 3.937755
59.670 4.016198
59.675 4.153386
59.680 4.395452
59.685 4.358611
59.690 4.577329
59.695 4.800683
59.700 4.773072
59.705 5.1034
59.710 5.032446
59.715 4.81996
59.720 4.646051
59.725 4.727082
59.730 4.661971
59.735 4.53068
59.740 4.370194
59.745 4.49505
59.750 4.646085
59.755 5.01
59.760 5.222418
59.765 5.20977
59.770 5.362251
59.775 5.433841
59.780 5.362216
59.785 5.366906
59.790 5.148863
59.795 4.633714
59.800 4.671039
59.805 4.887072
59.810 4.953025
59.815 5.232217
59.820 5.291377
59.825 5.605656
59.830 5.842941
59.835 6.015394
59.840 5.538286
59.845 5.138295
59.850 4.949101
59.855 4.615959
59.860 4.36047
59.865 4.296098
59.870 3.998955
59.875 4.0298
59.880 3.863873
59.885 3.682756
59.890 3.79895
59.895 4.040179
59.900 4.067251
59.905 4.245584
59.910 4.198623
59.915 4.485818
59.920 4.704769
59.925 4.670016
59.930 4.437228
59.935 4.573708
59.940 4.507598
59.945 4.498497
59.950 4.275429
59.955 3.979775
59.960 3.98249
59.965 4.068282
59.970 3.90572
59.975 4.011934
59.980 4.161059
59.985 4.539354
59.990 5.050069
59.995 5.121787
60.000 5.170289
60.005 5.323561
60.010 5.227392
60.015 5.065281
60.020 4.924264
60.025 4.616055
60.030 4.413588
60.035 4.386073
60.040 4.329211
60.045 4.396985
60.050 4.372677
60.055 3.92437
60.060 3.928375
60.065 4.194714
60.070 3.902434
60.075 3.865867
60.080 3.954895
60.085 4.178517
60.090 4.403589
60.095 4.077809
60.100 3.886487
60.105 3.784645
60.110 3.44545
60.115 3.444213
60.120 3.372359
60.125 3.50737
60.130 3.60022
60.135 3.823577
60.140 3.854867
60.145 3.955742
60.150 4.057135
60.155 4.183033
60.160 4.203681
60.165 4.451408
60.170 4.322495
60.175 4.48725
60.180 4.528534
60.185 4.421521
60.190 4.270759
60.195 4.024501
60.200 3.824716
60.205 4.010694
60.210 3.922445
60.215 4.30776
60.220 4.262491
60.225 4.374183
60.230 4.717827
60.235 5.175643
60.240 5.135524
60.245 5.253148
60.250 5.060028
60.255 5.248918
60.260 5.294707
60.265 5.244246
60.270 4.866906
60.275 4.682595
60.280 4.646867
60.285 4.707558
60.290 5.001725
60.295 4.906866
60.300 4.998742
60.305 5.080831
60.310 5.267551
60.315 5.320077
60.320 5.140188
60.325 4.567269
60.330 4.552359
60.335 4.247628
60.340 4.206392
60.345 4.156812
60.350 4.493145
60.355 4.411497
60.360 4.375412
60.365 4.335707
60.370 4.579906
60.375 4.88157
60.380 4.953041
60.385 4.656696
60.390 4.739779
60.395 5.186259
60.400 5.231574
60.405 5.040201
60.410 4.820642
60.415 4.652062
60.420 4.516771
60.425 4.614867
60.430 4.457515
60.435 4.306765
60.440 4.505663
60.445 4.67079
60.450 5.003941
60.455 5.13245
60.460 4.943172
60.465 4.757294
60.470 4.893231
60.475 4.947177
60.480 4.741528
60.485 4.560821
60.490 4.647777
60.495 4.643051
60.500 4.404983
60.505 4.088293
60.510 4.145525
60.515 4.200148
60.520 4.074073
60.525 3.94582
60.530 3.91188
60.535 4.145909
60.540 4.54795
60.545 4.368762
60.550 4.346687
60.555 4.363867
60.560 4.248285
60.565 4.473665
60.570 4.162
60.575 4.084733
60.580 3.911587
60.585 3.940539
60.590 4.105635
60.595 4.186651
60.600 4.191601
60.605 4.539615
60.610 4.419662
60.615 4.631797
60.620 4.688792
60.625 4.313931
60.630 4.324737
60.635 4.454226
60.640 4.633776
60.645 4.85581
60.650 4.418251
60.655 4.198388
60.660 4.65397
60.665 5.246255
60.670 5.190479
60.675 5.01254
60.680 4.920198
60.685 5.314902
60.690 5.798985
60.695 5.494835
60.700 4.956229
60.705 4.925195
60.710 4.928716
60.715 5.103344
60.720 5.431678
60.725 5.548402
60.730 5.92873
60.735 5.933256
60.740 5.878473
60.745 5.837399
60.750 5.403064
60.755 4.817744
60.760 4.422615
60.765 4.347699
60.770 4.434092
60.775 4.469163
60.780 4.677155
60.785 4.940036
60.790 5.308527
60.795 5.293546
60.800 5.129311
60.805 4.988563
60.810 4.766768
60.815 4.176264
60.820 3.895416
60.825 4.012411
60.830 4.322941
60.835 4.70206
60.840 4.730904
60.845 5.039148
60.850 5.625229
60.855 5.925796
60.860 5.54174
60.865 5.099909
60.870 5.011134
60.875 5.153207
60.880 5.109834
60.885 4.86354
60.890 4.855981
60.895 4.880303
60.900 5.097464
60.905 5.036152
60.910 4.924697
60.915 4.952492
60.920 4.908975
60.925 4.74245
60.930 4.723472
60.935 4.387846
60.940 4.186121
60.945 3.94352
60.950 3.806521
60.955 3.663027
60.960 3.827836
60.965 3.93589
60.970 4.118536
60.975 4.250343
60.980 4.341716
60.985 4.353423
60.990 4.500389
60.995 4.46208
61.000 4.783718
61.005 4.616161
61.010 4.494982
61.015 4.917865
61.020 5.195156
61.025 4.825952
61.030 4.684008
61.035 4.390318
61.040 4.632328
61.045 4.640045
61.050 4.404906
61.055 4.346014
61.060 4.92485
61.065 5.199483
61.070 5.300103
61.075 5.073492
61.080 5.120039
61.085 5.039853
61.090 5.327116
61.095 5.273031
61.100 4.982788
61.105 5.105444
61.110 5.116032
61.115 5.156026
61.120 4.935382
61.125 4.661537
61.130 4.405867
61.135 4.702628
61.140 4.566392
61.145 4.682909
61.150 4.73261
61.155 4.793627
61.160 4.74872
61.165 4.848258
61.170 4.473485
61.175 4.250976
61.180 4.19561
61.185 4.170952
61.190 4.119215
61.195 4.297201
61.200 4.587806
61.205 4.895814
61.210 4.987167
61.215 4.817436
61.220 4.842529
61.225 4.903887
61.230 4.632966
61.235 4.186496
61.240 4.252952
61.245 4.845937
61.250 5.215173
61.255 5.006698
61.260 5.121539
61.265 5.16831
61.270 5.279719
61.275 4.948252
61.280 4.415018
61.285 4.318754
61.290 4.577742
61.295 4.58492
61.300 4.693464
61.305 5.151077
61.310 5.433463
61.315 5.821422
61.320 5.79603
61.325 5.590819
61.330 5.613992
61.335 5.570061
61.340 5.181701
61.345 5.089049
61.350 4.870793
61.355 5.220567
61.360 5.671903
61.365 5.662175
61.370 5.768594
61.375 5.822659
61.380 5.676755
61.385 5.58506
61.390 5.256838
61.395 5.271956
61.400 5.163203
61.405 5.134954
61.410 4.880421
61.415 5.141512
61.420 5.092119
61.425 4.89442
61.430 4.601251
61.435 4.672216
61.440 4.593127
61.445 4.621237
61.450 4.133277
61.455 4.052177
61.460 3.955149
61.465 3.964076
61.470 3.872189
61.475 3.988982
61.480 4.045732
61.485 4.176116
61.490 4.199705
61.495 4.323993
61.500 4.108872
61.505 4.08987
61.510 3.68329
61.515 3.861738
61.520 4.156902
61.525 4.210202
61.530 4.430204
61.535 4.610586
61.540 4.723804
61.545 4.783199
61.550 4.434798
61.555 4.210383
61.560 4.30729
61.565 4.338645
61.570 4.405923
61.575 4.412036
61.580 4.732137
61.585 5.084778
61.590 5.048971
61.595 4.862002
61.600 4.672151
61.605 4.616126
61.610 4.486665
61.615 4.403442
61.620 4.585974
61.625 4.883115
61.630 4.922349
61.635 4.909359
61.640 5.01184
61.645 5.251235
61.650 5.111927
61.655 4.722402
61.660 4.44151
61.665 4.547514
61.670 4.523814
61.675 4.300006
61.680 4.163777
61.685 4.093175
61.690 4.078524
61.695 4.162146
61.700 4.130252
61.705 4.167363
61.710 4.329936
61.715 4.493475
61.720 4.697209
61.725 5.007473
61.730 4.878692
61.735 4.724123
61.740 4.889475
61.745 4.900815
61.750 4.672271
61.755 4.646696
61.760 4.841725
61.765 4.966896
61.770 4.920345
61.775 4.6672
61.780 4.49762
61.785 4.700239
61.790 4.685571
61.795 4.731978
61.800 4.973634
61.805 5.189682
61.810 5.478653
61.815 5.723394
61.820 5.551836
61.825 5.556677
61.830 5.292614
61.835 5.293591
61.840 5.32316
61.845 5.159205
61.850 4.987482
61.855 5.162557
61.860 5.252551
61.865 5.033195
61.870 4.778779
61.875 4.923363
61.880 5.025822
61.885 5.131302
61.890 4.994243
61.895 4.811
61.900 4.987753
61.905 5.167521
61.910 4.832622
61.915 4.673562
61.920 4.629848
61.925 4.540473
61.930 4.768617
61.935 4.782546
61.940 4.888843
61.945 5.175311
61.950 5.190984
61.955 5.241108
61.960 5.522866
61.965 5.34825
61.970 5.353843
61.975 5.289844
61.980 4.947242
61.985 4.758874
61.990 4.643358
61.995 4.420256
62.000 4.711283
62.005 4.821269
62.010 4.805504
62.015 4.82658
62.020 4.881835
62.025 4.988024
62.030 5.093137
62.035 5.069413
62.040 4.77112
62.045 4.638814
62.050 4.85894
62.055 5.104635
62.060 4.840055
62.065 4.564927
62.070 4.33021
62.075 4.418583
62.080 4.587083
62.085 4.475518
62.090 4.518112
62.095 4.894672
62.100 4.925379
62.105 5.126219
62.110 5.030405
62.115 4.794512
62.120 4.846029
62.125 4.926161
62.130 5.040503
62.135 4.962518
62.140 4.722772
62.145 4.661779
62.150 4.667908
62.155 4.65767
62.160 4.417973
62.165 4.519348
62.170 4.553246
62.175 4.874205
62.180 5.220425
62.185 5.722919
62.190 5.625574
62.195 5.334651
62.200 4.920869
62.205 4.794655
62.210 4.619418
62.215 4.569925
62.220 4.286999
62.225 4.348839
62.230 4.712749
62.235 5.136726
62.240 5.452612
62.245 5.40002
62.250 5.50414
62.255 5.470891
62.260 5.555645
62.265 5.439237
62.270 5.39458
62.275 5.015337
62.280 5.276509
62.285 5.334301
62.290 5.240799
62.295 5.201521
62.300 5.041914
62.305 5.081352
62.310 5.742157
62.315 5.708643
62.320 5.216897
62.325 5.016052
62.330 4.931671
62.335 4.913369
62.340 4.568885
62.345 4.247628
62.350 4.253938
62.355 4.826872
62.360 5.299491
62.365 5.590183
62.370 5.882623
62.375 6.128198
62.380 6.191573
62.385 5.821196
62.390 5.512482
62.395 5.372351
62.400 5.457391
62.405 5.344026
62.410 5.33286
62.415 5.486482
62.420 5.619929
62.425 5.625536
62.430 5.572169
62.435 5.308726
62.440 5.284729
62.445 5.22461
62.450 5.098029
62.455 5.158763
62.460 5.492211
62.465 5.446553
62.470 5.507011
62.475 5.663105
62.480 5.964227
62.485 5.965815
62.490 6.008953
62.495 6.054514
62.500 6.289525
62.505 6.350712
62.510 6.272198
62.515 5.809333
62.520 5.712076
62.525 5.272527
62.530 4.850155
62.535 4.559904
62.540 4.34298
62.545 4.095969
62.550 4.246833
62.555 4.113285
62.560 4.587706
62.565 4.779811
62.570 4.776109
62.575 4.853215
62.580 4.934304
62.585 4.856666
62.590 4.838348
62.595 4.655459
62.600 4.45248
62.605 4.5115
62.610 4.405948
62.615 4.34518
62.620 4.618108
62.625 4.811782
62.630 5.021264
62.635 5.413552
62.640 5.608505
62.645 5.881318
62.650 5.962704
62.655 5.927811
62.660 6.025969
62.665 6.078237
62.670 6.083015
62.675 6.205313
62.680 6.206831
62.685 6.436188
62.690 6.161737
62.695 5.758148
62.700 5.481265
62.705 5.154606
62.710 5.058129
62.715 5.069962
62.720 5.02976
62.725 5.485156
62.730 5.961748
62.735 6.236509
62.740 6.352727
62.745 6.432055
62.750 6.537039
62.755 6.237146
62.760 6.177655
62.765 6.142542
62.770 6.047689
62.775 5.905002
62.780 5.535812
62.785 5.307821
62.790 5.384795
62.795 5.092933
62.800 4.827506
62.805 4.8643
62.810 4.94601
62.815 5.064616
62.820 4.992917
62.825 5.084562
62.830 5.353357
62.835 5.568528
62.840 5.547448
62.845 5.739081
62.850 5.655476
62.855 5.938348
62.860 6.034239
62.865 6.135093
62.870 5.70229
62.875 5.693614
62.880 5.551206
62.885 5.6317
62.890 5.437239
62.895 5.00937
62.900 4.676428
62.905 4.74546
62.910 4.480768
62.915 4.552353
62.920 4.457081
62.925 4.950363
62.930 5.326447
62.935 5.657021
62.940 5.936649
62.945 5.935539
62.950 5.65269
62.955 5.736071
62.960 5.311787
62.965 5.054433
62.970 4.737344
62.975 4.71138
62.980 4.872236
62.985 5.31232
62.990 5.584493
62.995 5.77017
63.000 5.96108
63.005 6.244017
63.010 5.974511
63.015 6.031703
63.020 5.812719
63.025 5.555846
63.030 5.266906
63.035 5.177041
63.040 5.053982
63.045 5.066527
63.050 4.812621
63.055 4.507396
63.060 4.33107
63.065 4.586636
63.070 4.698374
63.075 4.584722
63.080 4.515597
63.085 4.660719
63.090 4.903328
63.095 5.153114
63.100 5.05629
63.105 5.031914
63.110 5.349995
63.115 5.554242
63.120 5.553126
63.125 5.396142
63.130 5.059596
63.135 4.978903
63.140 4.945249
63.145 5.141119
63.150 5.396146
63.155 5.401073
63.160 5.657075
63.165 5.95201
63.170 6.018333
63.175 5.858211
63.180 5.282688
63.185 5.078218
63.190 5.063451
63.195 4.923757
63.200 4.814012
63.205 4.830166
63.210 5.247296
63.215 5.714363
63.220 5.78635
63.225 5.56239
63.230 5.530952
63.235 5.691871
63.240 5.597351
63.245 5.175934
63.250 4.735141
63.255 4.743218
63.260 5.087063
63.265 4.965654
63.270 4.630046
63.275 4.856113
63.280 5.048043
63.285 5.091219
63.290 5.079834
63.295 5.259797
63.300 5.63262
63.305 5.884957
63.310 5.908108
63.315 6.009343
63.320 6.511481
63.325 6.447062
63.330 6.056385
63.335 5.86382
63.340 5.854645
63.345 5.883995
63.350 5.740424
63.355 5.674472
63.360 5.825418
63.365 6.248222
63.370 6.378722
63.375 6.484917
63.380 6.543158
63.385 6.684072
63.390 6.431091
63.395 6.331691
63.400 5.92357
63.405 5.58493
63.410 5.452452
63.415 5.147547
63.420 4.988904
63.425 4.713606
63.430 4.47989
63.435 4.668171
63.440 4.625084
63.445 4.325997
63.450 4.579565
63.455 4.881674
63.460 5.008776
63.465 5.405452
63.470 5.85991
63.475 6.104556
63.480 6.349026
63.485 6.003446
63.490 5.829792
63.495 5.844999
63.500 5.599018
63.505 5.06538
63.510 5.076264
63.515 5.371938
63.520 5.712522
63.525 5.81427
63.530 5.832071
63.535 5.899333
63.540 6.010277
63.545 5.897918
63.550 5.853233
63.555 5.5951
63.560 5.321892
63.565 5.499974
63.570 5.319653
63.575 5.463771
63.580 5.520907
63.585 5.195082
63.590 5.373745
63.595 5.282212
63.600 5.480628
63.605 5.650077
63.610 5.478925
63.615 5.729339
63.620 5.945231
63.625 5.840879
63.630 6.134613
63.635 5.845537
63.640 5.659135
63.645 5.611184
63.650 5.401819
63.655 5.395686
63.660 5.299254
63.665 5.068542
63.670 5.2679
63.675 5.456228
63.680 5.406336
63.685 5.299776
63.690 5.085203
63.695 5.480117
63.700 5.767418
63.705 5.602013
63.710 5.20984
63.715 5.407774
63.720 5.39899
63.725 5.489058
63.730 5.27218
63.735 5.425521
63.740 5.431643
63.745 5.680531
63.750 5.363072
63.755 5.078957
63.760 5.121492
63.765 4.867066
63.770 4.397714
63.775 4.357429
63.780 4.441598
63.785 4.401832
63.790 4.521453
63.795 4.458833
63.800 4.697888
63.805 4.642335
63.810 4.657523
63.815 4.723249
63.820 5.125721
63.825 5.3701
63.830 5.530323
63.835 5.775746
63.840 6.216556
63.845 6.28418
63.850 6.282227
63.855 6.217319
63.860 6.072731
63.865 5.749311
63.870 5.499975
63.875 5.272429
63.880 5.457552
63.885 5.598704
63.890 5.487818
63.895 5.638891
63.900 5.843293
63.905 6.001579
63.910 6.262013
63.915 6.003903
63.920 6.013358
63.925 6.169725
63.930 6.148682
63.935 6.152894
63.940 6.162971
63.945 6.324144
63.950 6.352032
63.955 6.013301
63.960 5.838623
63.965 5.865878
63.970 5.858741
63.975 5.555927
63.980 5.250423
63.985 5.458049
63.990 5.785742
63.995 6.260267
64.000 6.141298
64.005 6.10827
64.010 5.940538
64.015 6.001957
64.020 6.549718
64.025 6.56156
64.030 6.11822
64.035 6.457763
64.040 6.731902
64.045 6.904369
64.050 6.656646
64.055 6.046051
64.060 5.747608
64.065 5.93084
64.070 5.59906
64.075 5.431281
64.080 5.373649
64.085 5.470449
64.090 5.797615
64.095 6.087872
64.100 6.293649
64.105 6.307058
64.110 6.568232
64.115 6.696537
64.120 7.122547
64.125 7.027646
64.130 6.973361
64.135 6.775096
64.140 7.05819
64.145 7.045497
64.150 6.989692
64.155 6.723638
64.160 6.717671
64.165 6.47288
64.170 6.547724
64.175 6.218333
64.180 6.33117
64.185 6.478689
64.190 6.298697
64.195 6.430768
64.200 6.391922
64.205 6.41509
64.210 6.449463
64.215 6.345574
64.220 6.183128
64.225 6.409631
64.230 6.673453
64.235 7.259451
64.240 7.419216
64.245 7.458553
64.250 7.399867
64.255 7.540201
64.260 7.129889
64.265 6.896746
64.270 6.952124
64.275 7.048363
64.280 7.554272
64.285 7.830306
64.290 7.800253
64.295 8.055976
64.300 8.03272
64.305 7.633775
64.310 7.464818
64.315 7.356524
64.320 7.288851
64.325 7.36769
64.330 7.446343
64.335 7.449001
64.340 7.699766
64.345 7.871688
64.350 8.012415
64.355 7.812283
64.360 7.581128
64.365 7.411518
64.370 7.524413
64.375 7.848174
64.380 7.690665
64.385 7.786469
64.390 7.921969
64.395 8.331405
64.400 9.122458
64.405 9.135176
64.410 8.891427
64.415 8.874681
64.420 9.020964
64.425 9.513321
64.430 9.465268
64.435 9.09944
64.440 9.490479
64.445 9.681664
64.450 9.609296
64.455 9.335646
64.460 9.169861
64.465 9.46237
64.470 9.88273
64.475 9.300701
64.480 9.306511
64.485 9.521333
64.490 9.568713
64.495 9.625894
64.500 9.267202
64.505 8.520967
64.510 8.413775
64.515 7.93226
64.520 7.615433
64.525 7.761967
64.530 8.079326
64.535 8.01785
64.540 8.600789
64.545 9.243155
64.550 9.717407
64.555 10.045671
64.560 9.684983
64.565 9.481956
64.570 9.53356
64.575 9.275284
64.580 9.261003
64.585 9.187841
64.590 8.88905
64.595 9.193731
64.600 9.255143
64.605 9.355989
64.610 9.282886
64.615 8.847852
64.620 9.05112
64.625 8.833882
64.630 8.389493
64.635 7.904223
64.640 7.323197
64.645 7.452356
64.650 6.935161
64.655 6.690059
64.660 6.835907
64.665 6.732425
64.670 6.920124
64.675 7.07161
64.680 6.871359
64.685 7.477764
64.690 7.363505
64.695 7.671797
64.700 7.686878
64.705 7.74688
64.710 7.995185
64.715 8.08485
64.720 7.902427
64.725 7.990893
64.730 8.044644
64.735 8.199844
64.740 8.112432
64.745 7.84187
64.750 7.686311
64.755 7.598823
64.760 7.440115
64.765 7.166276
64.770 7.331892
64.775 7.450897
64.780 7.19919
64.785 6.901915
64.790 6.802107
64.795 6.528106
64.800 6.23622
64.805 6.096343
64.810 6.063991
64.815 6.139457
64.820 6.277865
64.825 6.413303
64.830 6.984712
64.835 7.145776
64.840 6.986023
64.845 6.912477
64.850 6.860182
64.855 6.812274
64.860 6.669694
64.865 6.466161
64.870 6.838193
64.875 7.04105
64.880 7.091398
64.885 7.330483
64.890 7.616007
64.895 7.668874
64.900 7.51863
64.905 7.189007
64.910 7.21108
64.915 7.355122
64.920 7.263267
64.925 7.089281
64.930 6.857945
64.935 7.244053
64.940 7.484407
64.945 7.312273
64.950 6.807771
64.955 6.889224
64.960 6.943779
64.965 6.933525
64.970 6.568666
64.975 6.336832
64.980 6.12759
64.985 6.406631
64.990 6.472044
64.995 6.425859
65.000 6.534224
65.005 6.425444
65.010 6.607039
65.015 6.958383
65.020 7.328924
65.025 7.286341
65.030 7.346165
65.035 6.843743
65.040 6.989778
65.045 7.229919
65.050 7.301929
65.055 7.227332
65.060 7.0607
65.065 6.981297
65.070 7.38328
65.075 7.338082
65.080 7.280532
65.085 7.053699
65.090 7.081738
65.095 7.619761
65.100 7.613199
65.105 7.572835
65.110 7.419799
65.115 7.270024
65.120 7.455497
65.125 7.480775
65.130 7.119768
65.135 7.354764
65.140 7.483557
65.145 7.655188
65.150 7.716428
65.155 7.79252
65.160 7.685877
65.165 7.856548
65.170 8.158549
65.175 7.91279
65.180 7.929895
65.185 8.023426
65.190 8.07188
65.195 8.132162
65.200 7.835465
65.205 7.837041
65.210 8.362225
65.215 8.39096
65.220 7.911105
65.225 7.746495
65.230 8.095287
65.235 8.627283
65.240 8.66543
65.245 8.449813
65.250 8.455373
65.255 8.868987
65.260 8.839279
65.265 8.177072
65.270 8.082578
65.275 8.206047
65.280 7.930759
65.285 8.162802
65.290 8.390177
65.295 8.726613
65.300 9.036626
65.305 8.731484
65.310 8.517601
65.315 8.766533
65.320 8.716334
65.325 8.356932
65.330 8.31654
65.335 8.339271
65.340 8.414465
65.345 8.355027
65.350 8.335693
65.355 8.101316
65.360 8.084568
65.365 8.155575
65.370 8.107756
65.375 7.936302
65.380 8.011402
65.385 7.992942
65.390 8.038392
65.395 8.096206
65.400 7.672768
65.405 7.448149
65.410 7.432768
65.415 7.320566
65.420 7.450959
65.425 7.763586
65.430 7.797283
65.435 8.287821
65.440 8.730953
65.445 8.849908
65.450 8.516513
65.455 8.44247
65.460 8.397946
65.465 8.585169
65.470 8.208429
65.475 7.956374
65.480 8.167459
65.485 8.440262
65.490 8.506878
65.495 8.917201
65.500 8.80723
65.505 8.908245
65.510 8.889011
65.515 8.611532
65.520 8.490829
65.525 8.292783
65.530 7.753298
65.535 7.706171
65.540 7.872873
65.545 7.967036
65.550 8.249281
65.555 8.296791
65.560 8.332578
65.565 8.475859
65.570 8.529964
65.575 8.514843
65.580 8.482753
65.585 8.319719
65.590 8.404072
65.595 8.201798
65.600 8.219893
65.605 8.345461
65.610 8.118058
65.615 8.192607
65.620 8.261417
65.625 8.145238
65.630 8.02777
65.635 7.59902
65.640 7.625728
65.645 8.428202
65.650 8.592706
65.655 8.351521
65.660 8.141769
65.665 8.651645
65.670 8.758584
65.675 8.619725
65.680 8.245304
65.685 8.003955
65.690 8.285066
65.695 8.26545
65.700 8.163565
65.705 8.354686
65.710 7.841115
65.715 7.547629
65.720 7.317266
65.725 7.260981
65.730 7.352682
65.735 7.008682
65.740 6.99492
65.745 7.740348
65.750 8.080028
65.755 8.21156
65.760 8.025019
65.765 7.915424
65.770 8.135149
65.775 8.229608
65.780 7.592453
65.785 7.239719
65.790 7.2488
65.795 7.485037
65.800 7.31943
65.805 6.902397
65.810 6.673257
65.815 6.785672
65.820 7.344787
65.825 7.483364
65.830 7.283831
65.835 7.826349
65.840 7.871924
65.845 7.870573
65.850 7.72705
65.855 7.080118
65.860 6.856972
65.865 7.163403
65.870 6.737148
65.875 6.978532
65.880 7.245398
65.885 7.374874
65.890 7.586572
65.895 7.712326
65.900 7.447731
65.905 7.646299
65.910 7.507255
65.915 7.245288
65.920 7.282113
65.925 7.042677
65.930 6.948617
65.935 6.93007
65.940 6.523611
65.945 6.600168
65.950 6.792055
65.955 6.656393
65.960 6.927102
65.965 7.189996
65.970 7.367348
65.975 7.811594
65.980 7.686273
65.985 7.793869
65.990 7.945984
65.995 7.929973
66.000 7.965301
66.005 8.075619
66.010 7.911937
66.015 7.836182
66.020 7.521085
66.025 7.324394
66.030 6.892213
66.035 6.787344
66.040 6.379972
66.045 6.186069
66.050 6.46894
66.055 6.71004
66.060 6.840015
66.065 6.921964
66.070 6.960855
66.075 7.084873
66.080 6.900357
66.085 6.564082
66.090 6.224162
66.095 6.130545
66.100 6.191036
66.105 6.057487
66.110 6.013974
66.115 6.211363
66.120 6.278351
66.125 6.565532
66.130 6.399537
66.135 6.213352
66.140 6.415129
66.145 6.614613
66.150 6.534698
66.155 6.704407
66.160 6.817716
66.165 7.293643
66.170 6.975338
66.175 6.731399
66.180 6.860989
66.185 7.096268
66.190 6.803118
66.195 6.760495
66.200 6.662716
66.205 6.99616
66.210 7.211287
66.215 7.0865
66.220 6.882249
66.225 6.613076
66.230 6.400701
66.235 6.401784
66.240 6.391068
66.245 6.07185
66.250 5.920755
66.255 5.99495
66.260 6.403045
66.265 6.442814
66.270 6.645246
66.275 6.558669
66.280 6.680076
66.285 6.529277
66.290 6.622569
66.295 6.594337
66.300 6.323484
66.305 6.136338
66.310 5.703871
66.315 5.825742
66.320 6.156093
66.325 6.137661
66.330 6.102213
66.335 6.287053
66.340 6.375329
66.345 6.58971
66.350 6.112835
66.355 5.975267
66.360 5.555986
66.365 5.427433
66.370 5.072744
66.375 4.828496
66.380 4.796603
66.385 5.031185
66.390 5.241488
66.395 5.558032
66.400 5.718047
66.405 5.862018
66.410 5.878619
66.415 6.033324
66.420 6.338883
66.425 6.492371
66.430 6.444324
66.435 6.579935
66.440 6.609149
66.445 6.621428
66.450 6.391879
66.455 6.015687
66.460 5.852423
66.465 5.90168
66.470 5.524107
66.475 5.602971
66.480 5.883677
66.485 6.410722
66.490 6.766054
66.495 7.121606
66.500 7.075758
66.505 7.37369
66.510 7.506035
66.515 7.583818
66.520 7.50235
66.525 7.105515
66.530 6.857162
66.535 6.870994
66.540 6.609466
66.545 6.494352
66.550 6.285351
66.555 6.026043
66.560 5.978729
66.565 5.859214
66.570 5.954646
66.575 6.254265
66.580 6.436691
66.585 6.494038
66.590 6.487859
66.595 6.73735
66.600 6.757239
66.605 6.82674
66.610 6.532577
66.615 6.20996
66.620 5.824928
66.625 5.550417
66.630 5.157178
66.635 5.371906
66.640 5.260906
66.645 5.324237
66.650 5.500625
66.655 6.212401
66.660 6.603488
66.665 6.724627
66.670 6.299489
66.675 6.440725
66.680 6.472552
66.685 6.30197
66.690 6.024773
66.695 5.811131
66.700 5.678272
66.705 5.654674
66.710 5.500352
66.715 5.367597
66.720 5.371782
66.725 5.254212
66.730 5.203447
66.735 5.406534
66.740 5.725059
66.745 6.012875
66.750 6.148409
66.755 5.932961
66.760 5.95121
66.765 6.006585
66.770 6.349163
66.775 6.076494
66.780 5.699134
66.785 5.672708
66.790 6.008069
66.795 6.092686
66.800 6.34208
66.805 6.250907
66.810 6.246931
66.815 6.426366
66.820 6.600031
66.825 6.682905
66.830 6.816604
66.835 6.761919
66.840 6.616629
66.845 6.726896
66.850 7.010911
66.855 6.726638
66.860 6.23846
66.865 6.002822
66.870 6.081542
66.875 6.546809
66.880 6.684906
66.885 6.270551
66.890 6.370231
66.895 6.408899
66.900 6.568309
66.905 6.387177
66.910 5.855613
66.915 5.751389
66.920 5.806991
66.925 5.909462
66.930 5.964703
66.935 6.024714
66.940 5.982373
66.945 6.128514
66.950 6.114683
66.955 6.197604
66.960 6.203516
66.965 6.958177
66.970 6.907782
66.975 6.900964
66.980 6.821427
66.985 6.869852
66.990 6.689024
66.995 6.810434
67.000 6.426266
67.005 6.512986
67.010 6.69438
67.015 6.576856
67.020 6.506158
67.025 6.386345
67.030 6.155077
67.035 6.210019
67.040 6.08522
67.045 6.028146
67.050 6.236715
67.055 6.453455
67.060 6.544206
67.065 6.67738
67.070 6.679115
67.075 6.663244
67.080 6.750065
67.085 6.743379
67.090 6.715354
67.095 6.863682
67.100 6.566167
67.105 6.628819
67.110 6.875659
67.115 6.546497
67.120 6.238722
67.125 6.054177
67.130 5.996928
67.135 6.172967
67.140 6.278888
67.145 6.176892
67.150 6.245719
67.155 6.363798
67.160 6.176223
67.165 6.336172
67.170 6.352851
67.175 5.840702
67.180 5.368612
67.185 5.109571
67.190 5.349853
67.195 5.86263
67.200 5.698627
67.205 5.408706
67.210 5.851211
67.215 6.196364
67.220 6.598163
67.225 6.582302
67.230 6.820569
67.235 6.87871
67.240 6.733243
67.245 6.349375
67.250 6.381543
67.255 6.603582
67.260 6.502847
67.265 6.089734
67.270 6.449342
67.275 6.982461
67.280 7.17711
67.285 7.419565
67.290 7.229851
67.295 7.35294
67.300 7.186656
67.305 6.862087
67.310 6.684806
67.315 6.558547
67.320 6.249767
67.325 5.878284
67.330 5.849892
67.335 6.023304
67.340 6.289765
67.345 6.493248
67.350 6.490669
67.355 6.491651
67.360 6.648081
67.365 6.621944
67.370 6.596506
67.375 6.159825
67.380 5.820415
67.385 5.607934
67.390 5.85176
67.395 5.679432
67.400 5.822825
67.405 5.790147
67.410 6.103421
67.415 6.47374
67.420 6.858187
67.425 6.960344
67.430 7.323405
67.435 7.282994
67.440 7.542877
67.445 7.411899
67.450 7.656863
67.455 7.342865
67.460 7.092342
67.465 6.965993
67.470 6.792264
67.475 6.593406
67.480 6.56567
67.485 6.332856
67.490 6.339126
67.495 6.36922
67.500 6.473881
67.505 6.685492
67.510 6.652401
67.515 6.688053
67.520 6.576602
67.525 6.648977
67.530 6.508289
67.535 6.666584
67.540 6.568745
67.545 6.516813
67.550 6.515816
67.555 6.656467
67.560 6.482466
67.565 6.373383
67.570 6.021842
67.575 6.044376
67.580 5.863735
67.585 5.703476
67.590 5.576139
67.595 6.182709
67.600 6.408213
67.605 6.608238
67.610 6.89685
67.615 7.061224
67.620 7.262506
67.625 7.252995
67.630 7.130596
67.635 7.21837
67.640 7.154957
67.645 6.912881
67.650 6.767215
67.655 6.919082
67.660 7.094439
67.665 6.657824
67.670 6.557845
67.675 6.682512
67.680 6.968807
67.685 7.569518
67.690 7.35362
67.695 7.314644
67.700 7.757972
67.705 7.958217
67.710 7.535642
67.715 7.316864
67.720 7.137416
67.725 7.264961
67.730 7.097382
67.735 7.157456
67.740 6.982456
67.745 7.081101
67.750 7.126946
67.755 7.004778
67.760 6.811034
67.765 7.158243
67.770 6.687036
67.775 6.439434
67.780 6.45581
67.785 6.523411
67.790 6.497121
67.795 6.958689
67.800 6.692338
67.805 6.706407
67.810 7.251182
67.815 7.374146
67.820 7.207767
67.825 7.233524
67.830 6.861511
67.835 6.994551
67.840 7.014539
67.845 6.8797
67.850 6.797962
67.855 7.108467
67.860 7.154134
67.865 7.603345
67.870 7.765699
67.875 8.031363
67.880 8.012193
67.885 7.831825
67.890 7.292911
67.895 6.810478
67.900 6.391104
67.905 6.075054
67.910 5.709894
67.915 5.653749
67.920 5.657108
67.925 5.954011
67.930 5.997591
67.935 5.938765
67.940 6.171067
67.945 6.110169
67.950 5.859179
67.955 6.05458
67.960 6.154036
67.965 6.697514
67.970 6.50245
67.975 6.253999
67.980 6.877537
67.985 7.146693
67.990 7.418944
67.995 7.58355
68.000 7.7054
68.005 8.04441
68.010 8.377542
68.015 7.89414
68.020 7.877722
68.025 7.604714
68.030 7.369848
68.035 7.147517
68.040 7.07275
68.045 7.080621
68.050 7.639975
68.055 7.56359
68.060 7.851758
68.065 7.648641
68.070 7.547808
68.075 7.215747
68.080 6.748651
68.085 6.319892
68.090 6.100272
68.095 6.144146
68.100 6.085176
68.105 6.232521
68.110 6.286427
68.115 6.176764
68.120 6.095509
68.125 6.132101
68.130 5.846332
68.135 6.365236
68.140 6.690565
68.145 6.845999
68.150 7.130064
68.155 7.45686
68.160 7.632152
68.165 7.850188
68.170 7.430317
68.175 7.338212
68.180 7.484832
68.185 7.428548
68.190 7.367746
68.195 7.201102
68.200 7.109451
68.205 6.971582
68.210 7.069808
68.215 6.813912
68.220 6.796231
68.225 6.711596
68.230 6.571999
68.235 6.467423
68.240 6.56271
68.245 6.342768
68.250 6.408671
68.255 6.689199
68.260 6.981126
68.265 7.17787
68.270 7.431726
68.275 7.552395
68.280 7.627615
68.285 7.537147
68.290 7.255268
68.295 7.164184
68.300 7.077495
68.305 7.334545
68.310 7.498386
68.315 7.687079
68.320 7.958695
68.325 7.67157
68.330 7.313094
68.335 7.114203
68.340 6.572344
68.345 6.667805
68.350 6.959808
68.355 7.151992
68.360 7.501609
68.365 7.93783
68.370 8.128277
68.375 8.538632
68.380 8.879128
68.385 8.817848
68.390 8.611689
68.395 8.613503
68.400 8.383238
68.405 8.181763
68.410 8.090851
68.415 7.603357
68.420 7.760025
68.425 8.044466
68.430 8.154378
68.435 8.564602
68.440 8.799722
68.445 9.013867
68.450 9.05998
68.455 9.229631
68.460 9.361062
68.465 9.429215
68.470 9.319957
68.475 9.20332
68.480 9.014743
68.485 9.110877
68.490 8.687358
68.495 8.489141
68.500 8.456155
68.505 8.459035
68.510 8.470881
68.515 8.349957
68.520 8.038719
68.525 8.16124
68.530 8.359723
68.535 8.56962
68.540 8.211272
68.545 8.37229
68.550 8.642101
68.555 8.919168
68.560 9.236825
68.565 9.364638
68.570 9.399459
68.575 9.979002
68.580 9.951172
68.585 9.682546
68.590 9.5373
68.595 8.807405
68.600 8.750992
68.605 9.015488
68.610 8.284221
68.615 8.095964
68.620 8.019664
68.625 8.079185
68.630 8.693236
68.635 8.572009
68.640 8.516272
68.645 8.963716
68.650 9.209621
68.655 9.818176
68.660 10.228842
68.665 9.873107
68.670 9.565999
68.675 9.388211
68.680 9.489237
68.685 9.466548
68.690 9.259706
68.695 9.232462
68.700 9.419426
68.705 9.735818
68.710 10.1104
68.715 10.332906
68.720 10.442543
68.725 10.510101
68.730 10.438217
68.735 10.428145
68.740 10.05996
68.745 9.436126
68.750 9.234889
68.755 9.129193
68.760 8.762499
68.765 8.896617
68.770 9.268413
68.775 9.216485
68.780 9.262391
68.785 9.181417
68.790 9.007609
68.795 8.426853
68.800 8.21664
68.805 8.12536
68.810 8.271773
68.815 8.294253
68.820 7.701289
68.825 7.767214
68.830 8.055396
68.835 7.808015
68.840 7.771387
68.845 8.487897
68.850 9.216155
68.855 9.735992
68.860 9.565149
68.865 9.586807
68.870 9.682044
68.875 9.516945
68.880 8.804133
68.885 8.217904
68.890 8.027842
68.895 8.497741
68.900 8.71816
68.905 8.399668
68.910 8.175847
68.915 8.015741
68.920 7.913396
68.925 8.327824
68.930 8.17555
68.935 7.949753
68.940 8.130692
68.945 8.156325
68.950 8.085183
68.955 8.066057
68.960 7.652609
68.965 7.688346
68.970 7.788659
68.975 7.869936
68.980 8.120563
68.985 8.328663
68.990 8.601207
68.995 8.488075
69.000 8.725687
69.005 8.586882
69.010 8.310926
69.015 8.332897
69.020 8.334164
69.025 8.54285
69.030 8.841837
69.035 8.386886
69.040 8.466932
69.045 8.629737
69.050 8.633785
69.055 8.503733
69.060 8.270167
69.065 8.294718
69.070 8.835608
69.075 9.307553
69.080 9.464726
69.085 9.540597
69.090 9.560081
69.095 9.283579
69.100 8.942006
69.105 8.595643
69.110 8.129349
69.115 7.938172
69.120 7.918332
69.125 7.947614
69.130 8.160462
69.135 8.673989
69.140 8.533675
69.145 8.391201
69.150 8.378922
69.155 8.264454
69.160 8.431499
69.165 8.537465
69.170 8.259553
69.175 8.454119
69.180 8.216395
69.185 8.071672
69.190 7.979314
69.195 7.869279
69.200 7.637552
69.205 7.601038
69.210 7.477887
69.215 7.598303
69.220 7.21501
69.225 7.06022
69.230 6.56393
69.235 6.409734
69.240 6.03177
69.245 6.071136
69.250 6.453564
69.255 6.759714
69.260 6.653789
69.265 6.763897
69.270 6.801373
69.275 7.186619
69.280 7.272579
69.285 6.847943
69.290 6.899885
69.295 7.076854
69.300 7.557231
69.305 7.517604
69.310 7.666901
69.315 7.84656
69.320 8.186733
69.325 8.114372
69.330 8.253801
69.335 8.043784
69.340 7.928984
69.345 8.017172
69.350 7.585552
69.355 7.625908
69.360 7.6064
69.365 7.377658
69.370 7.564686
69.375 7.379685
69.380 6.719011
69.385 7.103127
69.390 7.134496
69.395 6.958984
69.400 6.63416
69.405 6.443146
69.410 6.6599
69.415 6.699006
69.420 6.14013
69.425 5.890992
69.430 5.999942
69.435 6.218075
69.440 6.531627
69.445 6.687568
69.450 6.728269
69.455 7.00383
69.460 7.24483
69.465 7.195349
69.470 7.37446
69.475 6.981174
69.480 6.718307
69.485 6.688732
69.490 6.651514
69.495 6.688398
69.500 6.725345
69.505 6.528863
69.510 6.462273
69.515 6.637471
69.520 6.83146
69.525 6.683768
69.530 6.762714
69.535 7.175297
69.540 7.261012
69.545 7.739321
69.550 7.610754
69.555 7.197612
69.560 7.080465
69.565 6.885628
69.570 6.49579
69.575 6.401405
69.580 6.159297
69.585 6.036451
69.590 6.523219
69.595 6.985171
69.600 7.267203
69.605 7.434186
69.610 7.64784
69.615 7.747157
69.620 7.913508
69.625 7.673897
69.630 7.213486
69.635 6.531417
69.640 6.281497
69.645 6.187699
69.650 6.439078
69.655 6.8387
69.660 6.977747
69.665 7.323319
69.670 7.526395
69.675 7.5035
69.680 7.362074
69.685 7.484035
69.690 7.147341
69.695 6.893532
69.700 6.811801
69.705 6.757923
69.710 6.895145
69.715 6.633008
69.720 6.261063
69.725 6.263121
69.730 5.985229
69.735 6.125948
69.740 6.20837
69.745 6.473759
69.750 6.656236
69.755 6.798011
69.760 7.355448
69.765 7.609854
69.770 7.539831
69.775 7.605294
69.780 7.527745
69.785 7.632063
69.790 7.757624
69.795 7.489983
69.800 7.520113
69.805 7.411376
69.810 7.111172
69.815 6.777435
69.820 6.450148
69.825 6.12497
69.830 5.964252
69.835 5.869905
69.840 6.249902
69.845 6.645904
69.850 6.577353
69.855 6.45511
69.860 6.268207
69.865 6.373015
69.870 6.459502
69.875 6.340069
69.880 6.395721
69.885 6.410059
69.890 6.499098
69.895 6.778533
69.900 6.959692
69.905 6.776195
69.910 6.670952
69.915 6.689624
69.920 6.497163
69.925 6.409739
69.930 6.189194
69.935 6.090379
69.940 6.027367
69.945 6.177253
69.950 6.322893
69.955 6.479124
69.960 6.391767
69.965 6.29486
69.970 6.808015
69.975 6.861934
69.980 6.721863
69.985 6.891212
69.990 6.998829
69.995 7.173859
70.000 7.014579
70.005 6.150686
70.010 5.706151
70.015 5.057129
70.020 4.886088
70.025 4.906972
70.030 5.355561
70.035 5.901065
70.040 6.429226
70.045 7.102065
70.050 7.675619
70.055 7.794825
70.060 7.503106
70.065 7.420527
70.070 7.477921
70.075 7.190837
70.080 7.036938
70.085 6.749197
70.090 6.94647
70.095 6.925447
70.100 6.450938
70.105 6.376796
70.110 6.497489
70.115 6.710934
70.120 6.663474
70.125 6.562701
70.130 6.707154
70.135 6.740202
70.140 6.585843
70.145 6.679503
70.150 6.479035
70.155 6.58539
70.160 6.455248
70.165 6.548747
70.170 6.908813
70.175 6.984951
70.180 6.877668
70.185 7.034688
70.190 7.308999
70.195 7.442298
70.200 7.542548
70.205 7.527012
70.210 7.795551
70.215 7.606356
70.220 7.418291
70.225 7.12303
70.230 7.076565
70.235 7.071671
70.240 6.470346
70.245 6.361612
70.250 6.80251
70.255 7.33041
70.260 7.840771
70.265 8.063751
70.270 8.114941
70.275 8.132335
70.280 7.780396
70.285 7.464619
70.290 7.151843
70.295 6.947497
70.300 6.679497
70.305 6.509564
70.310 6.586637
70.315 6.580138
70.320 6.262733
70.325 6.412909
70.330 6.375882
70.335 6.364933
70.340 6.741384
70.345 6.914306
70.350 7.338628
70.355 7.591068
70.360 7.464827
70.365 7.456485
70.370 7.723418
70.375 7.260714
70.380 7.449364
70.385 7.493976
70.390 7.399605
70.395 7.37869
70.400 7.694978
70.405 7.633587
70.410 7.974091
70.415 7.61629
70.420 7.455832
70.425 7.579522
70.430 7.380447
70.435 7.185221
70.440 6.978405
70.445 6.869793
70.450 6.885359
70.455 6.955319
70.460 6.812241
70.465 6.80801
70.470 6.896109
70.475 6.869356
70.480 6.87987
70.485 6.611598
70.490 6.47167
70.495 6.659992
70.500 6.581603
70.505 6.724498
70.510 6.938022
70.515 7.113787
70.520 7.201842
70.525 7.153728
70.530 7.1211
70.535 7.149582
70.540 7.019898
70.545 6.971581
70.550 7.250914
70.555 7.516853
70.560 7.698506
70.565 7.463136
70.570 7.213496
70.575 7.054782
70.580 7.125201
70.585 7.430867
70.590 7.6042
70.595 7.717631
70.600 7.839447
70.605 8.301367
70.610 8.866233
70.615 8.715313
70.620 7.924716
70.625 7.791566
70.630 7.254598
70.635 7.238702
70.640 7.049103
70.645 6.733373
70.650 6.939962
70.655 6.638733
70.660 6.380325
70.665 6.464245
70.670 6.213632
70.675 6.018072
70.680 5.984235
70.685 5.792756
70.690 6.340683
70.695 6.751227
70.700 7.230778
70.705 7.371166
70.710 7.028588
70.715 7.16409
70.720 7.216489
70.725 7.065616
70.730 6.802077
70.735 6.816002
70.740 6.716776
70.745 6.945529
70.750 6.460541
70.755 6.541264
70.760 6.703308
70.765 6.664601
70.770 6.335239
70.775 6.479044
70.780 6.741227
70.785 6.954099
70.790 7.026741
70.795 7.004839
70.800 7.139457
70.805 7.247351
70.810 7.111334
70.815 6.766065
70.820 6.737792
70.825 6.067345
70.830 5.805672
70.835 5.881275
70.840 5.871765
70.845 5.890294
70.850 6.241501
70.855 6.491766
70.860 6.789072
70.865 6.684919
70.870 6.579532
70.875 7.064467
70.880 7.33041
70.885 7.452829
70.890 7.316188
70.895 7.365347
70.900 7.247736
70.905 7.144004
70.910 6.873744
70.915 6.779449
70.920 6.731264
70.925 6.86767
70.930 6.618091
70.935 6.978283
70.940 7.429811
70.945 7.40764
70.950 7.197359
70.955 6.871161
70.960 6.655933
70.965 6.649937
70.970 6.166447
70.975 5.606342
70.980 5.385457
70.985 5.55114
70.990 5.6194
70.995 5.92984
71.000 6.407266
71.005 6.446307
71.010 6.4337
71.015 6.637737
71.020 6.614251
71.025 6.436179
71.030 6.148278
71.035 5.437892
71.040 5.143121
71.045 5.148246
71.050 5.264737
71.055 5.552219
71.060 5.698522
71.065 6.030541
71.070 6.580132
71.075 6.935503
71.080 6.720646
71.085 7.034427
71.090 6.973895
71.095 6.997355
71.100 7.049232
71.105 7.184073
71.110 7.190764
71.115 7.193076
71.120 6.773427
71.125 7.008017
71.130 7.435941
71.135 7.401746
71.140 7.274689
71.145 7.159563
71.150 7.109395
71.155 7.03114
71.160 6.802784
71.165 6.774573
71.170 6.897388
71.175 7.227139
71.180 7.485861
71.185 8.047545
71.190 8.160032
71.195 7.990742
71.200 7.331646
71.205 6.86666
71.210 6.854856
71.215 6.451478
71.220 6.222915
71.225 6.344706
71.230 6.988264
71.235 7.599396
71.240 7.701349
71.245 7.767339
71.250 7.769891
71.255 7.34134
71.260 7.208254
71.265 7.095918
71.270 7.015524
71.275 6.987195
71.280 6.871812
71.285 7.106856
71.290 7.617613
71.295 7.480408
71.300 7.360276
71.305 7.316876
71.310 7.198387
71.315 7.36668
71.320 7.197355
71.325 7.181045
71.330 7.164
71.335 7.036576
71.340 7.054757
71.345 7.455388
71.350 7.356746
71.355 7.307084
71.360 6.932373
71.365 6.792238
71.370 6.842255
71.375 6.818089
71.380 6.73498
71.385 6.543492
71.390 6.806309
71.395 6.939745
71.400 6.731113
71.405 6.83375
71.410 6.870268
71.415 6.878441
71.420 6.855548
71.425 6.373615
71.430 6.331285
71.435 6.34102
71.440 5.88538
71.445 5.998299
71.450 6.133317
71.455 5.821545
71.460 6.186717
71.465 6.746169
71.470 7.186125
71.475 7.121816
71.480 6.675828
71.485 6.637341
71.490 6.860822
71.495 6.526721
71.500 5.713062
71.505 5.393086
71.510 5.755004
71.515 5.855869
71.520 6.244012
71.525 6.24487
71.530 6.505862
71.535 6.664948
71.540 6.581184
71.545 6.294444
71.550 5.98842
71.555 5.90591
71.560 6.355445
71.565 6.259456
71.570 6.131406
71.575 6.579513
71.580 6.731452
71.585 6.727581
71.590 6.630012
71.595 6.086035
71.600 6.147947
71.605 5.888076
71.610 5.857714
71.615 5.959744
71.620 6.278749
71.625 6.641016
71.630 7.113308
71.635 7.687045
71.640 8.287768
71.645 8.340715
71.650 8.279548
71.655 7.863667
71.660 7.546812
71.665 7.305407
71.670 7.329892
71.675 7.212525
71.680 7.150239
71.685 7.295782
71.690 7.352308
71.695 7.338387
71.700 6.746561
71.705 6.44228
71.710 6.352716
71.715 6.368782
71.720 6.618185
71.725 6.797109
71.730 7.145589
71.735 7.523186
71.740 7.286148
71.745 7.439206
71.750 7.849984
71.755 7.86642
71.760 7.942841
71.765 8.070639
71.770 7.96698
71.775 8.048651
71.780 7.898882
71.785 7.578668
71.790 7.058188
71.795 6.929118
71.800 6.647203
71.805 6.874856
71.810 6.970297
71.815 6.967851
71.820 6.803391
71.825 6.889763
71.830 6.587809
71.835 6.774278
71.840 6.669198
71.845 6.402924
71.850 6.18581
71.855 6.289861
71.860 6.785056
71.865 6.876081
71.870 6.564238
71.875 7.059685
71.880 7.373186
71.885 7.606616
71.890 7.049837
71.895 6.523579
71.900 6.633364
71.905 6.594378
71.910 6.059307
71.915 5.799641
71.920 5.719019
71.925 6.04836
71.930 6.143155
71.935 6.119555
71.940 6.301367
71.945 6.548653
71.950 6.682421
71.955 6.647919
71.960 6.810103
71.965 6.717308
71.970 6.638245
71.975 6.334175
71.980 6.214295
71.985 5.835447
71.990 6.036291
71.995 6.143999
72.000 6.695161
72.005 7.02277
72.010 7.090114
72.015 7.226826
72.020 7.409303
72.025 7.527154
72.030 7.428984
72.035 6.914359
72.040 6.737254
72.045 7.057091
72.050 7.22475
72.055 6.992449
72.060 6.850387
72.065 7.035816
72.070 7.301406
72.075 7.542609
72.080 7.423332
72.085 7.145486
72.090 7.236224
72.095 7.564767
72.100 7.600944
72.105 7.57085
72.110 7.386823
72.115 7.666409
72.120 7.992226
72.125 8.075823
72.130 7.953086
72.135 7.843042
72.140 7.612778
72.145 7.53498
72.150 7.537118
72.155 7.319392
72.160 7.121365
72.165 7.028089
72.170 6.982458
72.175 7.143953
72.180 7.172371
72.185 6.654025
72.190 6.71001
72.195 6.834595
72.200 6.717851
72.205 6.55196
72.210 6.26176
72.215 6.372125
72.220 6.325416
72.225 6.426225
72.230 6.563344
72.235 6.583552
72.240 6.826181
72.245 6.708418
72.250 6.603783
72.255 6.478626
72.260 5.974911
72.265 5.67509
72.270 5.773242
72.275 5.78785
72.280 6.27462
72.285 6.357722
72.290 6.531959
72.295 6.60693
72.300 6.708665
72.305 6.515617
72.310 6.554321
72.315 5.961864
72.320 6.315399
72.325 6.305943
72.330 6.378709
72.335 6.49684
72.340 6.554116
72.345 6.601154
72.350 7.048418
72.355 7.286067
72.360 7.496617
72.365 7.456867
72.370 7.439417
72.375 7.288919
72.380 7.211307
72.385 6.755243
72.390 6.49297
72.395 6.608081
72.400 6.692096
72.405 6.792992
72.410 6.814174
72.415 7.014758
72.420 7.326393
72.425 7.376446
72.430 7.001362
72.435 7.144135
72.440 7.222735
72.445 7.108586
72.450 6.878643
72.455 6.799756
72.460 6.744472
72.465 6.956554
72.470 7.018193
72.475 7.094223
72.480 6.831193
72.485 6.697794
72.490 6.634299
72.495 6.36476
72.500 6.353722
72.505 6.160444
72.510 6.29376
72.515 6.507425
72.520 6.565201
72.525 6.600131
72.530 6.909539
72.535 6.994637
72.540 7.346821
72.545 7.434862
72.550 7.710219
72.555 7.698187
72.560 7.77449
72.565 7.764342
72.570 7.379999
72.575 7.295147
72.580 7.350725
72.585 7.331169
72.590 7.725718
72.595 7.760912
72.600 8.007986
72.605 7.886775
72.610 7.90422
72.615 7.753767
72.620 7.478437
72.625 7.347826
72.630 7.220499
72.635 7.302318
72.640 7.217515
72.645 6.983031
72.650 7.113754
72.655 6.808406
72.660 6.843005
72.665 6.633073
72.670 6.728254
72.675 6.596978
72.680 6.334123
72.685 6.541001
72.690 6.741285
72.695 6.518701
72.700 6.450883
72.705 6.555959
72.710 7.006953
72.715 6.734614
72.720 6.212533
72.725 6.189575
72.730 6.4264
72.735 6.296082
72.740 6.093207
72.745 5.895376
72.750 6.399615
72.755 7.20751
72.760 7.359008
72.765 7.60915
72.770 7.604523
72.775 7.729447
72.780 7.751404
72.785 7.342973
72.790 6.839768
72.795 6.389613
72.800 6.402658
72.805 6.775245
72.810 6.698534
72.815 6.697449
72.820 6.840356
72.825 6.524766
72.830 6.461444
72.835 5.909359
72.840 5.433449
72.845 5.567173
72.850 5.480221
72.855 5.445079
72.860 5.82598
72.865 5.831028
72.870 6.134801
72.875 6.334097
72.880 6.38037
72.885 6.707508
72.890 6.797293
72.895 6.870704
72.900 6.818051
72.905 6.55288
72.910 6.337468
72.915 6.202806
72.920 5.907398
72.925 6.069394
72.930 6.164511
72.935 6.372725
72.940 6.676657
72.945 6.796747
72.950 7.080863
72.955 7.446644
72.960 7.351824
72.965 7.335784
72.970 7.170392
72.975 7.12764
72.980 7.047606
72.985 6.681872
72.990 6.348911
72.995 6.399019
73.000 6.427455
