!@!!GADDS PLOTSO FILE: Chi integration type
!@!!Title/SampleName: map-14b
!@!!Comment: ?
!@!!User: Bruker Instrument Administrator
!@!!Site: University of Illinois Chicago
!@!!Frame: map-14b_01_000.gfrm
!@!!Wavelengths    1.54184   1.54056   1.54439
!@!!Frame angles: 2Theta: 63.000 Omega: 50.000 Phi: 0.000 Chi: 90.000
!@!!Integration range: 2Theta: 53.000 to 73.000  Gamma: -105.000 to -75.000
!@!!Integration method: bin normalized
!@!N
!@!SS
!@!M
!@!L 0.0 0.0 0.0 0.0
!@!XDegrees
!@!YCounts
53.000 8.722991
53.005 8.950078
53.010 8.765676
53.015 8.667275
53.020 8.56966
53.025 8.853806
53.030 9.316322
53.035 8.752135
53.040 8.219342
53.045 8.496322
53.050 8.398055
53.055 8.763284
53.060 8.539161
53.065 8.282285
53.070 8.53832
53.075 8.707134
53.080 8.628016
53.085 9.039263
53.090 8.782253
53.095 8.597574
53.100 8.578331
53.105 8.861626
53.110 9.171014
53.115 9.227382
53.120 9.277181
53.125 9.319686
53.130 9.395641
53.135 9.138672
53.140 9.075969
53.145 9.136119
53.150 8.754652
53.155 8.488381
53.160 8.643042
53.165 8.835301
53.170 8.841805
53.175 8.47059
53.180 8.383815
53.185 8.639033
53.190 8.768116
53.195 8.334339
53.200 8.101615
53.205 8.16442
53.210 7.946938
53.215 7.653308
53.220 7.400532
53.225 7.384082
53.230 7.445978
53.235 7.193557
53.240 7.210688
53.245 7.37217
53.250 8.019764
53.255 8.274607
53.260 8.365465
53.265 8.418632
53.270 8.649563
53.275 8.859581
53.280 9.050821
53.285 8.879762
53.290 9.109078
53.295 9.174404
53.300 9.086304
53.305 9.377132
53.310 9.06113
53.315 8.708418
53.320 7.973679
53.325 7.913765
53.330 7.949695
53.335 8.03298
53.340 8.180605
53.345 8.5235
53.350 8.592168
53.355 9.079719
53.360 9.069004
53.365 9.153119
53.370 8.890669
53.375 8.769813
53.380 9.135261
53.385 9.344012
53.390 9.362876
53.395 9.357463
53.400 9.410268
53.405 9.499341
53.410 9.439389
53.415 9.372431
53.420 9.693404
53.425 9.566788
53.430 9.479195
53.435 9.640711
53.440 9.314675
53.445 9.053886
53.450 8.852771
53.455 8.410074
53.460 8.58889
53.465 8.487401
53.470 8.221018
53.475 8.307584
53.480 8.314434
53.485 8.512953
53.490 8.45493
53.495 8.13321
53.500 8.183349
53.505 8.353154
53.510 8.604511
53.515 8.881123
53.520 8.479491
53.525 8.672139
53.530 8.589925
53.535 8.536667
53.540 8.610469
53.545 8.255809
53.550 7.73169
53.555 7.865419
53.560 8.391751
53.565 8.654408
53.570 8.59335
53.575 8.742637
53.580 9.206555
53.585 9.614908
53.590 9.794694
53.595 9.635131
53.600 10.060826
53.605 10.122899
53.610 9.771996
53.615 9.44759
53.620 9.137618
53.625 8.830935
53.630 8.425749
53.635 8.253567
53.640 8.183751
53.645 8.350294
53.650 8.089998
53.655 8.306317
53.660 8.102543
53.665 8.186452
53.670 7.732903
53.675 7.717251
53.680 7.924606
53.685 8.249931
53.690 7.968323
53.695 8.39801
53.700 8.679183
53.705 9.29828
53.710 9.268707
53.715 9.075162
53.720 9.08357
53.725 9.18248
53.730 9.006466
53.735 8.883711
53.740 8.667383
53.745 8.998178
53.750 9.552063
53.755 10.002187
53.760 10.204456
53.765 10.431643
53.770 10.57913
53.775 10.087654
53.780 10.139632
53.785 9.770224
53.790 9.771986
53.795 9.198449
53.800 8.787726
53.805 8.837229
53.810 8.884655
53.815 8.728473
53.820 8.767494
53.825 8.721318
53.830 9.281738
53.835 9.42997
53.840 9.6086
53.845 10.295637
53.850 10.405263
53.855 10.079401
53.860 9.877583
53.865 9.644618
53.870 9.750763
53.875 9.190452
53.880 8.561921
53.885 8.407675
53.890 9.220667
53.895 9.604495
53.900 9.54337
53.905 9.230256
53.910 9.62777
53.915 10.080384
53.920 10.136758
53.925 9.522654
53.930 9.280532
53.935 9.478477
53.940 9.344238
53.945 8.678864
53.950 8.160943
53.955 8.097988
53.960 7.75882
53.965 7.403872
53.970 7.420203
53.975 7.617014
53.980 7.950265
53.985 8.289935
53.990 8.214109
53.995 9.031127
54.000 8.974378
54.005 9.118998
54.010 9.220973
54.015 9.357194
54.020 9.569018
54.025 9.457376
54.030 9.538248
54.035 9.295368
54.040 9.299248
54.045 9.372261
54.050 9.044067
54.055 8.951519
54.060 9.140825
54.065 8.851407
54.070 9.206719
54.075 9.314331
54.080 9.64053
54.085 9.494122
54.090 9.418968
54.095 9.145605
54.100 9.408056
54.105 9.339152
54.110 9.340963
54.115 9.146934
54.120 9.69202
54.125 9.999117
54.130 10.256819
54.135 10.379073
54.140 10.428992
54.145 10.177819
54.150 10.107841
54.155 9.863224
54.160 9.835665
54.165 10.066545
54.170 10.10698
54.175 9.975709
54.180 9.814672
54.185 9.588913
54.190 9.34645
54.195 9.140626
54.200 9.198611
54.205 9.519104
54.210 9.914565
54.215 10.453282
54.220 10.605976
54.225 10.719065
54.230 10.470623
54.235 10.253985
54.240 9.677391
54.245 9.251809
54.250 9.082169
54.255 9.713446
54.260 9.766538
54.265 10.259897
54.270 10.73489
54.275 10.910052
54.280 10.903454
54.285 10.771583
54.290 10.370265
54.295 10.558339
54.300 10.103791
54.305 9.940288
54.310 10.084722
54.315 9.966819
54.320 9.853809
54.325 9.807582
54.330 9.705911
54.335 9.921612
54.340 9.673458
54.345 9.939418
54.350 10.288181
54.355 10.341222
54.360 10.422986
54.365 10.28021
54.370 10.198333
54.375 10.122183
54.380 10.012819
54.385 10.017942
54.390 10.32356
54.395 10.090056
54.400 9.679771
54.405 9.168963
54.410 9.147783
54.415 9.280379
54.420 8.793606
54.425 8.401042
54.430 7.976142
54.435 8.118479
54.440 8.157844
54.445 8.030424
54.450 7.74215
54.455 8.016463
54.460 7.993679
54.465 7.970676
54.470 8.352202
54.475 8.423865
54.480 8.575609
54.485 8.703175
54.490 8.648367
54.495 8.824103
54.500 9.363848
54.505 9.119301
54.510 9.540734
54.515 9.032661
54.520 8.998624
54.525 9.343011
54.530 9.277037
54.535 9.046647
54.540 8.731635
54.545 9.09972
54.550 9.687842
54.555 9.533726
54.560 9.053514
54.565 9.292011
54.570 9.477397
54.575 9.533814
54.580 8.891077
54.585 8.989896
54.590 8.920332
54.595 9.012978
54.600 8.936036
54.605 9.395471
54.610 9.923911
54.615 10.144747
54.620 10.116482
54.625 10.341181
54.630 10.469376
54.635 10.213641
54.640 9.677741
54.645 9.629896
54.650 9.420746
54.655 9.178227
54.660 9.034285
54.665 8.873487
54.670 9.020069
54.675 8.507059
54.680 8.522992
54.685 8.599119
54.690 8.473529
54.695 9.084083
54.700 9.270087
54.705 9.379277
54.710 9.307225
54.715 8.895771
54.720 8.690287
54.725 8.894534
54.730 8.288579
54.735 8.191312
54.740 8.360515
54.745 8.509255
54.750 8.47084
54.755 8.292562
54.760 8.067326
54.765 7.968792
54.770 8.275975
54.775 8.110165
54.780 8.27795
54.785 8.619223
54.790 8.595493
54.795 8.923018
54.800 9.420173
54.805 8.987329
54.810 9.543628
54.815 9.825004
54.820 10.027992
54.825 10.246151
54.830 9.662935
54.835 9.558703
54.840 9.657191
54.845 9.460543
54.850 9.412187
54.855 9.625374
54.860 9.98516
54.865 10.675983
54.870 11.072412
54.875 10.956947
54.880 11.235063
54.885 11.265872
54.890 11.437828
54.895 11.48856
54.900 10.780433
54.905 10.526812
54.910 10.322821
54.915 10.23075
54.920 10.290061
54.925 10.184405
54.930 10.145266
54.935 10.477184
54.940 10.807376
54.945 11.086781
54.950 11.098277
54.955 11.156089
54.960 10.741819
54.965 10.762666
54.970 10.609655
54.975 10.682219
54.980 10.496938
54.985 10.593538
54.990 10.704366
54.995 11.029688
55.000 11.026649
55.005 10.704905
55.010 10.158879
55.015 10.525619
55.020 10.656253
55.025 10.625093
55.030 10.753455
55.035 10.908824
55.040 11.211692
55.045 11.522914
55.050 11.539602
55.055 11.027535
55.060 11.391294
55.065 11.108767
55.070 11.270045
55.075 11.199181
55.080 10.791918
55.085 10.781525
55.090 11.0809
55.095 11.000915
55.100 10.894129
55.105 10.952277
55.110 11.022022
55.115 11.024493
55.120 10.599167
55.125 9.861337
55.130 9.439675
55.135 9.422194
55.140 9.26058
55.145 9.781396
55.150 9.973336
55.155 9.616289
55.160 10.083619
55.165 10.330059
55.170 10.252729
55.175 9.781998
55.180 9.626949
55.185 10.368854
55.190 11.067887
55.195 11.015578
55.200 10.874084
55.205 10.608265
55.210 10.747399
55.215 10.443459
55.220 10.151189
55.225 9.871745
55.230 9.583554
55.235 9.722752
55.240 10.193317
55.245 10.231316
55.250 10.402676
55.255 9.897416
55.260 9.980139
55.265 10.412398
55.270 10.280408
55.275 10.151989
55.280 9.837942
55.285 10.031152
55.290 10.044491
55.295 9.796858
55.300 9.355496
55.305 9.2873
55.310 8.935436
55.315 8.807739
55.320 8.396994
55.325 8.666024
55.330 8.835556
55.335 8.857601
55.340 8.738623
55.345 9.00343
55.350 9.027934
55.355 9.510797
55.360 9.535314
55.365 9.607306
55.370 9.667394
55.375 10.196339
55.380 10.36903
55.385 10.750047
55.390 10.281722
55.395 10.329879
55.400 10.432733
55.405 10.665801
55.410 10.19527
55.415 9.974402
55.420 9.377388
55.425 9.807697
55.430 9.516417
55.435 9.454783
55.440 9.534253
55.445 9.327223
55.450 9.335799
55.455 9.49203
55.460 9.11685
55.465 9.096836
55.470 8.708372
55.475 8.485872
55.480 8.654647
55.485 8.801019
55.490 8.893175
55.495 8.573684
55.500 8.804134
55.505 9.077249
55.510 9.583269
55.515 9.837977
55.520 9.715679
55.525 9.7171
55.530 10.286433
55.535 10.135307
55.540 9.729651
55.545 9.50847
55.550 9.438143
55.555 9.660035
55.560 9.636383
55.565 9.268259
55.570 9.351498
55.575 9.541087
55.580 9.853319
55.585 9.435139
55.590 9.058963
55.595 8.820977
55.600 8.762719
55.605 8.924685
55.610 8.835821
55.615 8.86869
55.620 9.334462
55.625 10.064568
55.630 10.233039
55.635 10.073902
55.640 10.014699
55.645 9.896894
55.650 10.021336
55.655 10.131436
55.660 9.704195
55.665 9.852668
55.670 9.666766
55.675 9.698811
55.680 9.90162
55.685 9.576748
55.690 9.229337
55.695 9.149602
55.700 9.332809
55.705 9.388562
55.710 8.9203
55.715 9.166343
55.720 9.590025
55.725 9.867477
55.730 10.055881
55.735 9.715536
55.740 10.212314
55.745 10.527171
55.750 9.990878
55.755 9.891521
55.760 9.814504
55.765 9.793406
55.770 10.069246
55.775 9.933321
55.780 9.316282
55.785 9.249537
55.790 9.167473
55.795 9.144289
55.800 9.17652
55.805 9.274158
55.810 9.479342
55.815 10.010316
55.820 10.272447
55.825 10.242705
55.830 9.849863
55.835 10.107477
55.840 9.998971
55.845 9.933516
55.850 10.096718
55.855 9.90767
55.860 10.289719
55.865 10.669964
55.870 10.252344
55.875 9.952511
55.880 9.784339
55.885 9.475286
55.890 9.502924
55.895 9.451241
55.900 9.775029
55.905 9.853825
55.910 10.030354
55.915 9.818283
55.920 9.797599
55.925 9.501016
55.930 9.313797
55.935 8.671208
55.940 8.436343
55.945 8.447136
55.950 8.622879
55.955 8.719481
55.960 8.562866
55.965 8.35031
55.970 8.406775
55.975 8.294939
55.980 8.390097
55.985 8.530053
55.990 8.253181
55.995 8.076158
56.000 8.28134
56.005 8.092619
56.010 8.321423
56.015 8.151091
56.020 8.090662
56.025 8.230677
56.030 8.582335
56.035 9.11924
56.040 9.816295
56.045 9.800993
56.050 9.96228
56.055 10.023909
56.060 10.3916
56.065 10.319202
56.070 9.889958
56.075 9.472881
56.080 9.215168
56.085 8.921686
56.090 8.974648
56.095 8.683775
56.100 8.683428
56.105 8.599152
56.110 9.169767
56.115 9.281852
56.120 9.479606
56.125 9.789069
56.130 10.144937
56.135 10.217663
56.140 10.312287
56.145 10.687975
56.150 11.063884
56.155 10.937504
56.160 10.60908
56.165 10.399774
56.170 10.046386
56.175 9.759916
56.180 9.383492
56.185 9.248662
56.190 9.210089
56.195 9.451715
56.200 9.318501
56.205 9.463873
56.210 9.144474
56.215 9.372859
56.220 9.545801
56.225 9.875234
56.230 9.897209
56.235 10.468922
56.240 11.141814
56.245 11.760071
56.250 11.955195
56.255 11.633424
56.260 11.255083
56.265 11.393237
56.270 11.274635
56.275 10.850291
56.280 10.656706
56.285 10.398313
56.290 10.765464
56.295 10.818143
56.300 10.419247
56.305 10.348265
56.310 10.272679
56.315 10.53434
56.320 10.2738
56.325 10.177086
56.330 10.114388
56.335 10.09211
56.340 9.89177
56.345 10.204808
56.350 9.552738
56.355 9.383721
56.360 9.127644
56.365 9.037122
56.370 9.075078
56.375 9.561715
56.380 9.51081
56.385 9.743699
56.390 9.500778
56.395 9.470373
56.400 9.833946
56.405 9.796555
56.410 9.369378
56.415 9.078077
56.420 9.90246
56.425 10.879737
56.430 11.151296
56.435 11.087253
56.440 11.244156
56.445 11.427611
56.450 11.759276
56.455 11.09293
56.460 10.449731
56.465 10.28218
56.470 10.135768
56.475 10.451241
56.480 10.379336
56.485 10.331005
56.490 11.024729
56.495 11.332005
56.500 11.175262
56.505 11.134779
56.510 11.338018
56.515 11.235412
56.520 10.988808
56.525 10.865347
56.530 11.019161
56.535 11.231602
56.540 11.289964
56.545 10.918562
56.550 10.583769
56.555 10.546803
56.560 10.222582
56.565 10.141041
56.570 10.121495
56.575 10.550503
56.580 10.611074
56.585 10.889299
56.590 10.932871
56.595 11.103274
56.600 11.074419
56.605 11.171884
56.610 10.96295
56.615 11.223344
56.620 11.305897
56.625 11.391289
56.630 11.4862
56.635 11.174692
56.640 10.933639
56.645 10.491826
56.650 10.480347
56.655 10.717906
56.660 10.671055
56.665 10.789227
56.670 11.233223
56.675 11.710876
56.680 11.779692
56.685 11.552416
56.690 11.516883
56.695 11.42612
56.700 11.142857
56.705 10.736475
56.710 10.121453
56.715 10.26919
56.720 10.493282
56.725 10.589246
56.730 10.179852
56.735 10.185994
56.740 10.28945
56.745 10.345456
56.750 10.214262
56.755 10.050089
56.760 9.937538
56.765 9.905096
56.770 9.627156
56.775 9.496182
56.780 9.604815
56.785 10.022263
56.790 10.091781
56.795 10.103414
56.800 10.443326
56.805 10.5964
56.810 10.587814
56.815 10.434715
56.820 10.188643
56.825 10.096323
56.830 10.310172
56.835 10.449694
56.840 11.071724
56.845 10.98737
56.850 10.401631
56.855 10.009486
56.860 10.164953
56.865 10.282031
56.870 10.113402
56.875 9.347212
56.880 9.237178
56.885 9.606361
56.890 9.611458
56.895 9.331999
56.900 8.781104
56.905 8.779849
56.910 9.018318
56.915 9.344753
56.920 9.534616
56.925 9.670776
56.930 9.500544
56.935 9.843951
56.940 9.928654
56.945 9.906552
56.950 9.730469
56.955 9.731465
56.960 9.843237
56.965 10.351578
56.970 10.211856
56.975 9.806333
56.980 9.737309
56.985 9.633541
56.990 9.530507
56.995 9.268413
57.000 8.767175
57.005 8.66137
57.010 9.088254
57.015 8.957582
57.020 9.236697
57.025 9.060323
57.030 9.034635
57.035 8.838411
57.040 8.625395
57.045 8.834576
57.050 9.181532
57.055 8.944833
57.060 8.853815
57.065 8.967248
57.070 9.434345
57.075 9.218683
57.080 9.165889
57.085 9.401041
57.090 9.722146
57.095 9.406125
57.100 9.268848
57.105 9.448403
57.110 9.682127
57.115 9.648587
57.120 9.140696
57.125 9.035384
57.130 9.362049
57.135 9.323466
57.140 8.964351
57.145 9.170886
57.150 8.960061
57.155 9.103602
57.160 9.584405
57.165 9.981218
57.170 10.379732
57.175 10.240257
57.180 10.02727
57.185 10.16696
57.190 10.778779
57.195 10.482286
57.200 9.892187
57.205 9.951517
57.210 10.566299
57.215 10.110862
57.220 9.872493
57.225 8.945839
57.230 9.086356
57.235 9.510073
57.240 9.415632
57.245 9.006528
57.250 9.377605
57.255 9.811923
57.260 10.076327
57.265 9.933513
57.270 9.710335
57.275 9.35354
57.280 9.71081
57.285 9.810062
57.290 9.295236
57.295 9.09397
57.300 8.887477
57.305 8.659484
57.310 8.740368
57.315 8.399936
57.320 8.810719
57.325 8.554
57.330 8.540376
57.335 8.948356
57.340 9.239745
57.345 9.244181
57.350 8.669689
57.355 7.86944
57.360 7.583973
57.365 7.396744
57.370 7.374824
57.375 7.702149
57.380 7.924029
57.385 8.176574
57.390 8.305041
57.395 8.777925
57.400 8.972993
57.405 8.765462
57.410 8.080217
57.415 8.205646
57.420 8.266888
57.425 8.841065
57.430 8.844103
57.435 8.578116
57.440 8.846166
57.445 9.069682
57.450 9.089035
57.455 9.525834
57.460 9.619167
57.465 9.88555
57.470 10.130097
57.475 10.05013
57.480 9.993996
57.485 9.963849
57.490 9.974972
57.495 10.432047
57.500 10.353072
57.505 10.025148
57.510 10.122236
57.515 10.382464
57.520 10.380439
57.525 9.783558
57.530 9.311191
57.535 9.473424
57.540 9.556025
57.545 9.499997
57.550 9.270418
57.555 9.212387
57.560 9.698679
57.565 9.709212
57.570 9.674168
57.575 9.739378
57.580 9.891088
57.585 9.871834
57.590 9.610833
57.595 9.437288
57.600 9.487821
57.605 9.394633
57.610 9.452179
57.615 9.272845
57.620 9.487414
57.625 9.465823
57.630 8.998803
57.635 9.149093
57.640 9.234143
57.645 9.094006
57.650 9.137428
57.655 9.282096
57.660 9.790947
57.665 9.919792
57.670 9.975436
57.675 10.202914
57.680 10.018397
57.685 10.270223
57.690 9.969055
57.695 10.052281
57.700 10.278039
57.705 10.078317
57.710 10.103688
57.715 10.000081
57.720 9.419263
57.725 9.078247
57.730 9.039558
57.735 8.870375
57.740 9.0889
57.745 8.640754
57.750 8.723372
57.755 9.096981
57.760 9.312103
57.765 9.134097
57.770 8.901267
57.775 8.764374
57.780 9.35679
57.785 9.635511
57.790 9.393583
57.795 9.082585
57.800 8.59709
57.805 8.469233
57.810 8.645712
57.815 8.38636
57.820 8.154028
57.825 8.494279
57.830 9.302123
57.835 10.097748
57.840 10.244313
57.845 10.298092
57.850 10.532398
57.855 11.064296
57.860 11.113323
57.865 10.681071
57.870 10.431731
57.875 9.878129
57.880 9.293263
57.885 9.149584
57.890 8.860184
57.895 8.230762
57.900 7.956392
57.905 8.162189
57.910 8.691378
57.915 9.004836
57.920 9.065265
57.925 9.204955
57.930 9.627043
57.935 9.855543
57.940 9.629232
57.945 9.413846
57.950 9.045382
57.955 8.777933
57.960 8.600634
57.965 8.629715
57.970 8.24649
57.975 8.068227
57.980 8.265853
57.985 8.869941
57.990 9.233466
57.995 9.147538
58.000 9.042494
58.005 9.41832
58.010 9.771872
58.015 9.809514
58.020 9.136345
58.025 9.382028
58.030 9.758676
58.035 10.008454
58.040 9.883334
58.045 9.989614
58.050 10.067196
58.055 9.990031
58.060 9.398206
58.065 9.282609
58.070 8.96462
58.075 8.853301
58.080 8.499587
58.085 8.277186
58.090 8.251457
58.095 8.085447
58.100 8.176283
58.105 8.686216
58.110 9.193262
58.115 9.483921
58.120 9.893731
58.125 10.224124
58.130 10.321034
58.135 10.223087
58.140 10.139897
58.145 9.968871
58.150 9.811311
58.155 9.447242
58.160 9.267214
58.165 9.348585
58.170 9.219554
58.175 8.558159
58.180 8.264435
58.185 8.256045
58.190 8.225478
58.195 8.455432
58.200 8.446379
58.205 8.450242
58.210 9.132027
58.215 9.585066
58.220 9.71751
58.225 9.990003
58.230 10.140494
58.235 10.338927
58.240 10.47138
58.245 10.35123
58.250 10.094359
58.255 10.330696
58.260 10.133787
58.265 9.676077
58.270 9.463171
58.275 9.578836
58.280 9.804585
58.285 9.782832
58.290 9.524261
58.295 9.781023
58.300 10.436802
58.305 10.917656
58.310 11.12164
58.315 10.641109
58.320 10.819227
58.325 10.879963
58.330 10.66643
58.335 9.993975
58.340 9.703638
58.345 9.256288
58.350 9.235212
58.355 9.224448
58.360 9.539865
58.365 9.882912
58.370 10.117751
58.375 10.045296
58.380 10.238664
58.385 10.460941
58.390 10.413883
58.395 10.266472
58.400 10.411488
58.405 10.98851
58.410 11.186034
58.415 10.902424
58.420 10.652854
58.425 10.387358
58.430 10.334195
58.435 9.927028
58.440 9.444147
58.445 9.367499
58.450 9.566517
58.455 10.04589
58.460 10.15734
58.465 10.156799
58.470 10.65113
58.475 10.512642
58.480 10.591894
58.485 10.690324
58.490 10.661886
58.495 10.659327
58.500 10.434129
58.505 10.328149
58.510 10.320148
58.515 10.25602
58.520 10.53966
58.525 10.664894
58.530 10.590261
58.535 10.516383
58.540 9.847785
58.545 9.712549
58.550 9.518248
58.555 9.079113
58.560 8.838976
58.565 8.699922
58.570 8.707682
58.575 8.994695
58.580 8.731917
58.585 8.671171
58.590 8.379569
58.595 8.457468
58.600 8.460748
58.605 8.534697
58.610 8.622835
58.615 9.03397
58.620 9.007155
58.625 9.466968
58.630 9.8556
58.635 10.190819
58.640 10.522509
58.645 10.919524
58.650 11.093908
58.655 11.561285
58.660 11.79667
58.665 11.373872
58.670 11.309896
58.675 11.280842
58.680 10.725876
58.685 10.566129
58.690 10.503218
58.695 10.242887
58.700 9.898086
58.705 9.432278
58.710 9.011883
58.715 9.705027
58.720 9.880503
58.725 9.863125
58.730 9.634809
58.735 9.696731
58.740 9.901515
58.745 10.313034
58.750 10.116556
58.755 9.952752
58.760 9.4956
58.765 9.576709
58.770 10.326899
58.775 10.500634
58.780 10.084748
58.785 9.461875
58.790 9.38167
58.795 9.690439
58.800 9.740456
58.805 9.425404
58.810 9.168334
58.815 8.955448
58.820 9.161725
58.825 9.300241
58.830 9.1578
58.835 9.126601
58.840 8.986727
58.845 9.089043
58.850 9.459099
58.855 9.72471
58.860 9.646766
58.865 9.30619
58.870 9.134308
58.875 9.108377
58.880 9.110769
58.885 9.05643
58.890 9.12819
58.895 9.002852
58.900 9.54487
58.905 9.569633
58.910 9.66468
58.915 9.839291
58.920 9.557524
58.925 9.308726
58.930 9.217958
58.935 8.925456
58.940 8.885278
58.945 8.997745
58.950 8.902741
58.955 9.086412
58.960 9.167325
58.965 9.243288
58.970 9.160667
58.975 9.212873
58.980 8.941152
58.985 8.835392
58.990 8.32307
58.995 8.319429
59.000 8.25705
59.005 8.381285
59.010 8.622025
59.015 8.667892
59.020 8.621227
59.025 8.853933
59.030 8.891765
59.035 8.997484
59.040 9.013798
59.045 9.116104
59.050 9.271797
59.055 9.346899
59.060 9.44385
59.065 9.21919
59.070 9.151975
59.075 8.943128
59.080 8.613133
59.085 8.622131
59.090 8.849717
59.095 9.317825
59.100 9.615063
59.105 9.874431
59.110 9.635296
59.115 9.344175
59.120 9.498592
59.125 9.632763
59.130 9.836109
59.135 9.681908
59.140 9.272895
59.145 9.567598
59.150 9.804306
59.155 9.708875
59.160 9.910124
59.165 9.719656
59.170 9.95582
59.175 10.140978
59.180 10.425443
59.185 10.441356
59.190 10.491337
59.195 9.844969
59.200 9.753198
59.205 9.763476
59.210 9.950493
59.215 10.133131
59.220 10.065178
59.225 10.122914
59.230 10.432506
59.235 10.049767
59.240 9.954955
59.245 10.274835
59.250 9.857391
59.255 9.44025
59.260 9.218846
59.265 9.176451
59.270 9.435503
59.275 9.328015
59.280 8.777177
59.285 8.355535
59.290 8.530553
59.295 8.669703
59.300 9.129895
59.305 9.161689
59.310 9.099046
59.315 9.332107
59.320 9.772703
59.325 9.822275
59.330 9.670228
59.335 9.261636
59.340 9.179083
59.345 9.074981
59.350 9.06765
59.355 8.868666
59.360 9.173616
59.365 8.743736
59.370 8.809901
59.375 8.817142
59.380 8.65514
59.385 8.445947
59.390 8.825779
59.395 8.628843
59.400 8.843683
59.405 8.735546
59.410 8.972459
59.415 9.134254
59.420 9.446467
59.425 9.463428
59.430 9.744133
59.435 10.051484
59.440 10.176291
59.445 10.003199
59.450 10.126181
59.455 9.735454
59.460 9.053993
59.465 8.664407
59.470 8.380618
59.475 8.318976
59.480 8.489694
59.485 8.660089
59.490 9.203899
59.495 9.515594
59.500 9.219796
59.505 9.446877
59.510 9.661758
59.515 9.387507
59.520 9.3716
59.525 9.212635
59.530 9.102918
59.535 9.018188
59.540 8.806454
59.545 8.360497
59.550 8.463132
59.555 8.297492
59.560 8.181062
59.565 8.292606
59.570 8.251637
59.575 8.130373
59.580 8.331794
59.585 8.43283
59.590 8.634439
59.595 8.95013
59.600 9.208486
59.605 9.673331
59.610 9.694917
59.615 9.80918
59.620 9.864994
59.625 9.993546
59.630 10.323471
59.635 10.082897
59.640 10.165432
59.645 10.472942
59.650 10.369681
59.655 10.189085
59.660 10.050611
59.665 9.282308
59.670 9.618829
59.675 9.382297
59.680 9.184302
59.685 9.305366
59.690 9.270996
59.695 8.961822
59.700 9.405916
59.705 8.984337
59.710 8.983903
59.715 8.806184
59.720 8.970516
59.725 9.29329
59.730 9.410335
59.735 9.80027
59.740 10.288156
59.745 10.60269
59.750 10.591154
59.755 10.086605
59.760 10.33529
59.765 10.474583
59.770 9.893666
59.775 9.388083
59.780 9.011666
59.785 9.112303
59.790 9.329605
59.795 9.187813
59.800 9.187098
59.805 9.300429
59.810 9.057873
59.815 8.935164
59.820 9.055688
59.825 9.016268
59.830 8.642253
59.835 8.628074
59.840 8.654943
59.845 8.9756
59.850 9.147469
59.855 9.263236
59.860 9.037853
59.865 9.076741
59.870 8.9863
59.875 9.159954
59.880 8.999714
59.885 9.00671
59.890 8.791046
59.895 8.625375
59.900 8.519799
59.905 8.546344
59.910 8.331719
59.915 8.895337
59.920 8.884839
59.925 9.102146
59.930 9.396801
59.935 9.385037
59.940 9.638996
59.945 9.908247
59.950 9.676623
59.955 9.745239
59.960 9.959604
59.965 10.203638
59.970 10.277767
59.975 9.850886
59.980 9.386713
59.985 9.34016
59.990 9.185544
59.995 9.038887
60.000 8.886721
60.005 9.002643
60.010 9.344616
60.015 9.579643
60.020 9.544678
60.025 9.607307
60.030 9.186679
60.035 9.013586
60.040 9.099612
60.045 9.153311
60.050 9.359001
60.055 9.801968
60.060 9.965689
60.065 10.164048
60.070 10.13952
60.075 9.758231
60.080 9.976832
60.085 9.752058
60.090 9.486538
60.095 8.948786
60.100 8.865394
60.105 8.750065
60.110 8.558019
60.115 7.968448
60.120 8.289546
60.125 8.603011
60.130 8.846946
60.135 8.927645
60.140 9.194227
60.145 9.270491
60.150 9.144271
60.155 8.793279
60.160 8.571819
60.165 8.643975
60.170 8.653294
60.175 9.000675
60.180 9.311684
60.185 9.555742
60.190 9.356051
60.195 8.938107
60.200 8.728003
60.205 8.389965
60.210 8.0469
60.215 7.983129
60.220 7.770344
60.225 8.008553
60.230 8.359665
60.235 8.699073
60.240 8.876087
60.245 8.709505
60.250 8.708548
60.255 8.796833
60.260 8.738867
60.265 8.910609
60.270 8.928426
60.275 9.074771
60.280 9.047093
60.285 9.204554
60.290 9.126379
60.295 9.083532
60.300 9.342574
60.305 9.233936
60.310 9.033676
60.315 9.637993
60.320 9.546495
60.325 9.785762
60.330 9.766209
60.335 9.106931
60.340 9.10934
60.345 9.378955
60.350 8.998314
60.355 9.054178
60.360 8.808744
60.365 8.922228
60.370 9.301564
60.375 9.135808
60.380 9.004481
60.385 8.615239
60.390 8.445885
60.395 8.942414
60.400 9.008745
60.405 8.558281
60.410 8.884553
60.415 9.154352
60.420 9.468725
60.425 9.510747
60.430 9.424823
60.435 9.53335
60.440 9.978149
60.445 10.182486
60.450 9.927468
60.455 10.083344
60.460 9.957526
60.465 10.087247
60.470 10.006894
60.475 10.126659
60.480 10.171433
60.485 9.967813
60.490 9.82644
60.495 10.035155
60.500 9.863988
60.505 9.784266
60.510 9.63353
60.515 9.104754
60.520 9.174161
60.525 9.237612
60.530 9.258495
60.535 9.238086
60.540 9.370314
60.545 8.903151
60.550 8.875612
60.555 8.996505
60.560 9.033281
60.565 8.837883
60.570 8.616389
60.575 8.781601
60.580 9.286577
60.585 9.865013
60.590 9.997668
60.595 10.134467
60.600 10.219352
60.605 9.783726
60.610 9.567504
60.615 9.562525
60.620 9.186619
60.625 8.858473
60.630 8.484862
60.635 8.820611
60.640 9.246614
60.645 9.456842
60.650 9.551991
60.655 9.488184
60.660 9.682659
60.665 9.422028
60.670 8.815839
60.675 8.848921
60.680 8.665845
60.685 8.550421
60.690 8.486403
60.695 8.274989
60.700 8.686218
60.705 9.147445
60.710 8.766607
60.715 8.599277
60.720 8.556739
60.725 8.84375
60.730 9.003052
60.735 8.909102
60.740 8.665248
60.745 8.787101
60.750 8.618161
60.755 8.758905
60.760 8.621351
60.765 8.534028
60.770 8.164525
60.775 7.973714
60.780 8.433188
60.785 8.520055
60.790 8.440149
60.795 8.544034
60.800 8.680141
60.805 9.035346
60.810 9.837463
60.815 9.662083
60.820 9.722599
60.825 9.685109
60.830 9.357241
60.835 9.11619
60.840 9.025923
60.845 8.660115
60.850 8.40188
60.855 8.35662
60.860 8.342772
60.865 8.570207
60.870 8.984025
60.875 8.637623
60.880 8.537924
60.885 8.518708
60.890 8.365039
60.895 8.341007
60.900 8.409387
60.905 8.456364
60.910 8.52366
60.915 8.375664
60.920 8.563395
60.925 8.604232
60.930 8.558205
60.935 8.247936
60.940 7.968979
60.945 8.265132
60.950 8.473178
60.955 8.459279
60.960 8.924388
60.965 8.961089
60.970 9.267653
60.975 9.071233
60.980 8.782717
60.985 8.823244
60.990 8.769589
60.995 8.3384
61.000 8.910971
61.005 9.462332
61.010 10.177088
61.015 10.212099
61.020 10.009216
61.025 9.509485
61.030 9.372938
61.035 8.772
61.040 7.989469
61.045 7.806952
61.050 7.871558
61.055 7.914705
61.060 8.520002
61.065 8.868532
61.070 9.143061
61.075 9.115608
61.080 9.007934
61.085 8.979567
61.090 9.485353
61.095 9.435707
61.100 9.11097
61.105 9.147264
61.110 9.133919
61.115 9.143233
61.120 9.281858
61.125 9.515681
61.130 9.655188
61.135 10.053075
61.140 10.425961
61.145 10.468261
61.150 10.387222
61.155 10.262975
61.160 9.637715
61.165 9.197042
61.170 8.79702
61.175 8.270624
61.180 8.441652
61.185 8.247824
61.190 8.220921
61.195 8.637038
61.200 9.383458
61.205 9.662159
61.210 9.870238
61.215 10.151653
61.220 10.673707
61.225 10.7305
61.230 10.618312
61.235 10.058968
61.240 10.073119
61.245 9.859222
61.250 9.2341
61.255 9.017984
61.260 8.972725
61.265 8.765402
61.270 8.964357
61.275 8.61559
61.280 8.481912
61.285 8.745124
61.290 8.763174
61.295 8.839204
61.300 8.801787
61.305 8.440928
61.310 8.506013
61.315 8.721357
61.320 8.92249
61.325 8.887123
61.330 9.011073
61.335 8.819071
61.340 9.565814
61.345 10.074743
61.350 10.308987
61.355 10.037626
61.360 9.688504
61.365 9.642524
61.370 10.008491
61.375 9.626951
61.380 8.682196
61.385 8.386304
61.390 8.657246
61.395 8.950343
61.400 8.847854
61.405 8.635874
61.410 8.359489
61.415 8.459849
61.420 8.580198
61.425 8.744395
61.430 8.55218
61.435 8.189491
61.440 8.272705
61.445 8.798784
61.450 9.005665
61.455 9.200009
61.460 9.06624
61.465 9.137439
61.470 9.571723
61.475 9.651729
61.480 9.779328
61.485 10.054762
61.490 9.876925
61.495 9.807946
61.500 9.931738
61.505 9.711854
61.510 9.554461
61.515 9.2898
61.520 9.147944
61.525 8.892468
61.530 8.9181
61.535 8.556969
61.540 8.38827
61.545 8.277937
61.550 8.456707
61.555 9.099266
61.560 9.370619
61.565 8.873321
61.570 9.50686
61.575 9.958562
61.580 10.171979
61.585 10.158679
61.590 9.653779
61.595 9.447214
61.600 9.777099
61.605 9.614347
61.610 9.482418
61.615 9.712355
61.620 9.692653
61.625 9.662286
61.630 9.841251
61.635 10.057746
61.640 10.014455
61.645 10.122617
61.650 9.781757
61.655 9.51125
61.660 9.47789
61.665 9.490737
61.670 9.241024
61.675 8.994405
61.680 8.806229
61.685 8.558455
61.690 9.056971
61.695 8.819718
61.700 8.875652
61.705 8.736362
61.710 8.80319
61.715 9.153804
61.720 9.481932
61.725 9.113416
61.730 9.410701
61.735 9.130933
61.740 9.247091
61.745 9.113334
61.750 8.644677
61.755 8.623017
61.760 8.757807
61.765 8.988047
61.770 9.225299
61.775 9.205529
61.780 9.24405
61.785 9.221234
61.790 9.134037
61.795 9.119554
61.800 9.007791
61.805 8.999422
61.810 9.027081
61.815 8.979569
61.820 8.854817
61.825 8.871977
61.830 8.718919
61.835 8.305522
61.840 7.967849
61.845 7.915159
61.850 7.855088
61.855 8.455661
61.860 8.662918
61.865 8.772276
61.870 9.008668
61.875 9.421898
61.880 9.819265
61.885 9.591469
61.890 8.72375
61.895 8.333492
61.900 8.4556
61.905 8.65918
61.910 8.888995
61.915 8.834753
61.920 9.256113
61.925 9.655699
61.930 9.999454
61.935 10.194502
61.940 10.30898
61.945 9.998445
61.950 10.076994
61.955 10.698235
61.960 10.796371
61.965 10.046635
61.970 9.932046
61.975 9.727194
61.980 9.844
61.985 9.848664
61.990 9.257941
61.995 9.37673
62.000 9.619137
62.005 9.02753
62.010 9.028604
62.015 8.889825
62.020 8.777289
62.025 8.588019
62.030 8.991519
62.035 9.151581
62.040 9.227568
62.045 9.278866
62.050 9.187683
62.055 9.504013
62.060 9.520673
62.065 8.575267
62.070 8.524143
62.075 8.771485
62.080 8.828471
62.085 9.15783
62.090 8.900961
62.095 9.388401
62.100 10.447232
62.105 10.830884
62.110 10.620452
62.115 10.092428
62.120 10.395029
62.125 10.68845
62.130 10.194335
62.135 9.503386
62.140 9.331634
62.145 9.448108
62.150 9.490453
62.155 8.587584
62.160 8.711955
62.165 9.156233
62.170 9.527331
62.175 9.952107
62.180 10.213875
62.185 10.482057
62.190 10.613568
62.195 10.273382
62.200 10.216495
62.205 9.902696
62.210 9.865328
62.215 9.927824
62.220 10.130187
62.225 9.894055
62.230 9.80859
62.235 9.561578
62.240 9.532094
62.245 9.476945
62.250 9.546206
62.255 9.486979
62.260 9.357853
62.265 9.669144
62.270 9.704139
62.275 9.99971
62.280 9.819469
62.285 9.376285
62.290 9.249597
62.295 9.378231
62.300 8.947565
62.305 9.01712
62.310 8.595804
62.315 8.054816
62.320 7.942345
62.325 8.297992
62.330 8.718963
62.335 8.904724
62.340 8.986582
62.345 9.467359
62.350 10.104514
62.355 10.617269
62.360 10.34391
62.365 10.042428
62.370 9.5889
62.375 9.318051
62.380 8.945498
62.385 8.455909
62.390 8.272789
62.395 8.177523
62.400 8.309843
62.405 8.74725
62.410 9.205206
62.415 9.82402
62.420 9.807887
62.425 9.665195
62.430 9.480804
62.435 9.57486
62.440 9.526813
62.445 9.240814
62.450 9.010939
62.455 9.331183
62.460 9.617921
62.465 9.899499
62.470 9.971922
62.475 10.06267
62.480 10.212744
62.485 9.669774
62.490 9.450608
62.495 9.230084
62.500 9.493728
62.505 9.237327
62.510 8.89503
62.515 8.825607
62.520 9.171264
62.525 9.377818
62.530 9.581895
62.535 9.452539
62.540 9.638097
62.545 9.814363
62.550 9.256861
62.555 8.918196
62.560 8.9646
62.565 8.666986
62.570 8.474548
62.575 8.323509
62.580 8.772273
62.585 9.332292
62.590 9.853814
62.595 10.015401
62.600 10.145906
62.605 10.248719
62.610 10.333149
62.615 9.823195
62.620 9.878788
62.625 9.800533
62.630 9.611024
62.635 9.594956
62.640 9.462636
62.645 9.439084
62.650 9.627981
62.655 9.60238
62.660 10.246727
62.665 10.251753
62.670 10.407958
62.675 10.32659
62.680 10.342621
62.685 10.360032
62.690 10.303048
62.695 9.963102
62.700 9.998234
62.705 9.972614
62.710 10.536111
62.715 10.899475
62.720 11.27927
62.725 11.179771
62.730 11.047132
62.735 10.949595
62.740 10.775377
62.745 10.822186
62.750 10.967503
62.755 10.861345
62.760 10.923037
62.765 10.597708
62.770 10.826157
62.775 10.761773
62.780 10.18238
62.785 9.922178
62.790 9.727864
62.795 9.671381
62.800 9.939398
62.805 10.144348
62.810 10.513908
62.815 10.910154
62.820 10.55888
62.825 10.195523
62.830 10.335086
62.835 10.447777
62.840 10.313006
62.845 10.53622
62.850 10.665504
62.855 10.927307
62.860 11.201151
62.865 11.260572
62.870 11.159933
62.875 11.222617
62.880 10.564369
62.885 10.046693
62.890 10.010648
62.895 9.758883
62.900 9.698471
62.905 9.825264
62.910 9.639156
62.915 9.419094
62.920 9.403853
62.925 9.4489
62.930 9.803252
62.935 9.824737
62.940 9.968235
62.945 10.343542
62.950 10.777765
62.955 10.933165
62.960 10.745788
62.965 10.6476
62.970 10.81569
62.975 10.676673
62.980 10.365935
62.985 10.481913
62.990 10.559923
62.995 10.379831
63.000 10.109245
63.005 9.310377
63.010 8.605918
63.015 8.825955
63.020 8.705153
63.025 8.738402
63.030 9.092124
63.035 9.065888
63.040 9.217385
63.045 9.929276
63.050 9.855266
63.055 9.654118
63.060 9.445268
63.065 9.299024
63.070 9.23899
63.075 9.069626
63.080 8.829783
63.085 8.469051
63.090 8.333748
63.095 8.504739
63.100 8.537721
63.105 8.9501
63.110 9.24307
63.115 9.327867
63.120 9.363893
63.125 9.162039
63.130 8.976812
63.135 8.906015
63.140 8.731549
63.145 8.842468
63.150 8.929648
63.155 8.643091
63.160 8.741129
63.165 8.988294
63.170 9.173435
63.175 9.082242
63.180 9.18184
63.185 9.47841
63.190 10.146768
63.195 10.480565
63.200 10.367255
63.205 10.051589
63.210 9.911838
63.215 9.557603
63.220 9.005084
63.225 8.78308
63.230 8.645627
63.235 8.794979
63.240 8.952902
63.245 8.377178
63.250 8.285484
63.255 8.799444
63.260 9.180848
63.265 9.301387
63.270 9.329317
63.275 9.455705
63.280 10.317856
63.285 10.501929
63.290 10.35093
63.295 9.961141
63.300 9.894288
63.305 9.783478
63.310 9.954509
63.315 9.787744
63.320 9.58456
63.325 9.534812
63.330 9.833146
63.335 9.850174
63.340 10.013341
63.345 9.858576
63.350 9.843204
63.355 9.965961
63.360 10.221025
63.365 9.833026
63.370 9.366161
63.375 9.157259
63.380 9.044432
63.385 8.582839
63.390 8.375046
63.395 8.400299
63.400 8.470362
63.405 8.942157
63.410 8.835027
63.415 8.723008
63.420 8.779132
63.425 8.932758
63.430 8.857571
63.435 9.014789
63.440 8.97077
63.445 9.201338
63.450 9.543438
63.455 9.232859
63.460 8.891637
63.465 8.707455
63.470 8.491788
63.475 8.540495
63.480 8.379815
63.485 8.677178
63.490 9.38319
63.495 9.649611
63.500 9.712792
63.505 9.495038
63.510 9.23219
63.515 9.36124
63.520 9.27828
63.525 8.781247
63.530 8.612608
63.535 8.829633
63.540 9.050242
63.545 9.19865
63.550 9.065066
63.555 8.68889
63.560 8.592832
63.565 8.490861
63.570 8.349631
63.575 8.306135
63.580 7.872391
63.585 7.964664
63.590 8.355958
63.595 8.835148
63.600 9.017216
63.605 8.85951
63.610 8.513299
63.615 9.032515
63.620 8.973225
63.625 8.745275
63.630 8.782642
63.635 8.696134
63.640 8.896195
63.645 9.185575
63.650 9.04952
63.655 8.950256
63.660 9.027349
63.665 9.044239
63.670 8.967266
63.675 8.529937
63.680 8.360725
63.685 8.155185
63.690 8.472403
63.695 8.605799
63.700 8.386382
63.705 8.666237
63.710 9.015882
63.715 8.914486
63.720 8.882326
63.725 8.469709
63.730 8.327374
63.735 8.269652
63.740 8.099413
63.745 8.088739
63.750 8.685391
63.755 8.688596
63.760 8.861443
63.765 8.966469
63.770 9.513856
63.775 9.513186
63.780 9.853604
63.785 9.751302
63.790 9.756331
63.795 9.67488
63.800 9.744725
63.805 9.27942
63.810 9.273509
63.815 9.244481
63.820 9.627517
63.825 10.230053
63.830 10.556581
63.835 10.740676
63.840 11.07561
63.845 11.303924
63.850 11.092116
63.855 10.642008
63.860 10.798707
63.865 10.843293
63.870 10.3407
63.875 9.870692
63.880 9.5782
63.885 9.740493
63.890 9.602777
63.895 8.967947
63.900 8.744038
63.905 8.85107
63.910 9.160307
63.915 9.19258
63.920 9.302435
63.925 9.245802
63.930 9.328485
63.935 9.332436
63.940 9.555385
63.945 9.546262
63.950 9.854601
63.955 9.911312
63.960 10.294578
63.965 10.400681
63.970 10.416171
63.975 10.122808
63.980 10.141166
63.985 10.107208
63.990 9.666654
63.995 9.351536
64.000 9.28765
64.005 9.473889
64.010 9.931703
64.015 9.75085
64.020 9.835602
64.025 9.932872
64.030 9.651437
64.035 9.75302
64.040 9.469487
64.045 9.113808
64.050 8.972866
64.055 8.42224
64.060 8.531963
64.065 9.46084
64.070 9.636134
64.075 9.617125
64.080 9.583942
64.085 10.056769
64.090 10.160952
64.095 10.41422
64.100 9.826196
64.105 9.80374
64.110 10.124871
64.115 10.399053
64.120 9.909619
64.125 10.192507
64.130 10.2918
64.135 10.446426
64.140 10.573092
64.145 10.523499
64.150 10.698351
64.155 10.876432
64.160 10.606469
64.165 9.930946
64.170 9.536556
64.175 9.233864
64.180 8.988419
64.185 8.338134
64.190 8.336421
64.195 8.518178
64.200 8.916276
64.205 9.308824
64.210 9.521605
64.215 9.516893
64.220 9.673533
64.225 9.711572
64.230 9.293982
64.235 8.941113
64.240 8.906602
64.245 8.812074
64.250 8.890112
64.255 9.149007
64.260 9.070888
64.265 9.246774
64.270 9.062713
64.275 8.667478
64.280 9.134453
64.285 9.162418
64.290 9.245498
64.295 9.732723
64.300 10.145483
64.305 11.019316
64.310 11.222184
64.315 10.847659
64.320 10.813461
64.325 10.244283
64.330 9.759751
64.335 9.294258
64.340 8.795358
64.345 8.457054
64.350 8.342192
64.355 8.393365
64.360 8.767182
64.365 9.066287
64.370 9.17809
64.375 9.334235
64.380 9.657803
64.385 9.450123
64.390 9.275783
64.395 8.934424
64.400 9.046497
64.405 9.023326
64.410 8.999483
64.415 8.748755
64.420 9.145104
64.425 9.294317
64.430 9.585739
64.435 9.284027
64.440 9.046092
64.445 9.062304
64.450 9.317146
64.455 9.202353
64.460 9.353029
64.465 9.708908
64.470 10.181249
64.475 10.823853
64.480 10.727029
64.485 10.98514
64.490 10.929027
64.495 10.913879
64.500 10.692048
64.505 10.92371
64.510 10.551396
64.515 10.866891
64.520 10.448482
64.525 10.793737
64.530 10.797485
64.535 10.738808
64.540 10.448839
64.545 10.886292
64.550 10.797267
64.555 10.667328
64.560 10.431734
64.565 10.277905
64.570 10.252492
64.575 10.081339
64.580 9.343063
64.585 9.260684
64.590 9.523593
64.595 9.724083
64.600 10.005403
64.605 9.893228
64.610 10.079052
64.615 10.386657
64.620 10.268435
64.625 10.043463
64.630 9.812259
64.635 9.539287
64.640 9.836474
64.645 10.066809
64.650 10.592771
64.655 10.809265
64.660 11.0036
64.665 11.00025
64.670 11.260875
64.675 11.10679
64.680 10.494375
64.685 10.203936
64.690 10.156765
64.695 10.364407
64.700 10.877584
64.705 10.92197
64.710 11.207114
64.715 11.73454
64.720 11.796412
64.725 11.822206
64.730 11.492966
64.735 11.241065
64.740 11.035146
64.745 10.933747
64.750 11.282054
64.755 11.261648
64.760 11.265267
64.765 11.638443
64.770 11.602047
64.775 11.714271
64.780 11.926999
64.785 11.857037
64.790 11.838787
64.795 11.922932
64.800 12.033754
64.805 11.943508
64.810 12.009901
64.815 11.976414
64.820 12.169706
64.825 12.460688
64.830 12.25202
64.835 12.342309
64.840 12.570435
64.845 12.649227
64.850 12.528996
64.855 12.314739
64.860 12.417945
64.865 12.927114
64.870 12.738904
64.875 12.796352
64.880 12.997627
64.885 13.364891
64.890 13.223574
64.895 13.381744
64.900 13.19399
64.905 13.636347
64.910 13.699966
64.915 13.274614
64.920 13.603754
64.925 13.925938
64.930 13.841154
64.935 13.688621
64.940 13.566225
64.945 13.702509
64.950 13.566489
64.955 13.374942
64.960 13.027689
64.965 12.868849
64.970 13.05189
64.975 13.115055
64.980 13.79148
64.985 14.814757
64.990 15.02389
64.995 15.330959
65.000 15.81336
65.005 16.196495
65.010 15.878935
65.015 15.210596
65.020 14.758133
65.025 14.054471
65.030 13.94285
65.035 13.769696
65.040 13.599195
65.045 13.709152
65.050 13.875794
65.055 13.404121
65.060 13.534984
65.065 13.206442
65.070 12.873528
65.075 13.123963
65.080 13.938041
65.085 14.159623
65.090 15.516734
65.095 16.896917
65.100 17.113911
65.105 17.018618
65.110 16.905411
65.115 16.075787
65.120 15.918416
65.125 14.991275
65.130 14.340638
65.135 14.433926
65.140 14.502574
65.145 14.475102
65.150 14.374609
65.155 14.467139
65.160 14.270212
65.165 14.137033
65.170 14.346426
65.175 13.728061
65.180 13.357291
65.185 13.173538
65.190 13.147482
65.195 13.012602
65.200 13.070793
65.205 13.598121
65.210 13.804637
65.215 13.852425
65.220 14.13503
65.225 13.905818
65.230 13.420247
65.235 12.788772
65.240 12.528341
65.245 12.64014
65.250 12.466342
65.255 12.155663
65.260 11.628061
65.265 11.748167
65.270 11.950109
65.275 11.634499
65.280 11.646338
65.285 11.690164
65.290 11.457818
65.295 11.83007
65.300 11.808357
65.305 11.522461
65.310 11.219982
65.315 11.039428
65.320 10.996097
65.325 11.058777
65.330 10.83732
65.335 10.473536
65.340 10.393878
65.345 10.448413
65.350 10.371101
65.355 10.381902
65.360 10.437191
65.365 10.520778
65.370 10.42063
65.375 10.285089
65.380 10.682179
65.385 11.017474
65.390 11.155869
65.395 11.186028
65.400 11.164452
65.405 11.433579
65.410 11.580131
65.415 11.33015
65.420 11.071214
65.425 10.832122
65.430 10.811747
65.435 10.449739
65.440 10.209006
65.445 9.722573
65.450 9.54355
65.455 9.435659
65.460 9.375655
65.465 9.311663
65.470 9.363653
65.475 9.428783
65.480 9.651261
65.485 9.453853
65.490 9.347423
65.495 9.157812
65.500 8.969835
65.505 9.552718
65.510 9.873177
65.515 9.638146
65.520 9.972589
65.525 10.109173
65.530 10.223746
65.535 10.643385
65.540 10.464734
65.545 10.211427
65.550 10.329784
65.555 10.12118
65.560 10.497291
65.565 10.778016
65.570 10.329985
65.575 10.479424
65.580 10.828366
65.585 10.823107
65.590 10.829867
65.595 10.490984
65.600 10.374078
65.605 10.296538
65.610 9.994249
65.615 9.861572
65.620 9.765637
65.625 9.4943
65.630 9.192426
65.635 9.114429
65.640 9.022707
65.645 8.794956
65.650 8.455613
65.655 8.763826
65.660 9.00758
65.665 8.763431
65.670 8.962241
65.675 9.301518
65.680 9.478451
65.685 9.932507
65.690 10.263727
65.695 10.226379
65.700 10.561834
65.705 10.460986
65.710 10.263302
65.715 9.875911
65.720 9.323677
65.725 8.880958
65.730 9.008853
65.735 8.907408
65.740 8.850863
65.745 9.091674
65.750 9.527329
65.755 9.434232
65.760 9.075624
65.765 9.288053
65.770 9.591158
65.775 9.735803
65.780 9.400252
65.785 9.242476
65.790 9.661333
65.795 10.171165
65.800 9.497477
65.805 9.349496
65.810 9.18133
65.815 9.195472
65.820 9.006429
65.825 8.535874
65.830 8.506044
65.835 8.951452
65.840 8.721452
65.845 8.733162
65.850 9.231989
65.855 9.539907
65.860 9.751782
65.865 9.76839
65.870 9.863859
65.875 10.022015
65.880 9.959797
65.885 9.777245
65.890 9.621869
65.895 9.776266
65.900 9.838716
65.905 9.602007
65.910 9.812863
65.915 9.890457
65.920 9.924301
65.925 10.433894
65.930 10.327062
65.935 10.196233
65.940 10.364437
65.945 10.159316
65.950 9.743808
65.955 9.512674
65.960 9.240118
65.965 8.941038
65.970 9.157686
65.975 9.216574
65.980 9.124499
65.985 9.054985
65.990 9.057832
65.995 9.263579
66.000 9.605859
66.005 9.812857
66.010 9.660883
66.015 9.981248
66.020 10.469935
66.025 10.799449
66.030 10.942402
66.035 10.819327
66.040 10.689732
66.045 10.968894
66.050 11.203596
66.055 11.525995
66.060 11.273946
66.065 11.122564
66.070 10.81455
66.075 10.216555
66.080 10.239707
66.085 10.142692
66.090 9.572591
66.095 9.177395
66.100 9.382641
66.105 9.554801
66.110 9.824667
66.115 9.59508
66.120 9.402038
66.125 9.810998
66.130 10.043022
66.135 9.841179
66.140 10.330116
66.145 10.332024
66.150 10.281439
66.155 9.992328
66.160 9.712655
66.165 10.185282
66.170 10.430818
66.175 10.20628
66.180 10.290827
66.185 10.242763
66.190 10.195047
66.195 10.055021
66.200 9.707587
66.205 9.045701
66.210 8.86448
66.215 8.860109
66.220 9.166087
66.225 9.322103
66.230 9.313279
66.235 9.171452
66.240 9.259706
66.245 9.473014
66.250 9.604671
66.255 9.387953
66.260 9.213036
66.265 9.499639
66.270 9.620507
66.275 9.628082
66.280 9.633168
66.285 9.805434
66.290 9.769149
66.295 10.333422
66.300 9.971592
66.305 9.99
66.310 10.32688
66.315 10.23161
66.320 9.925276
66.325 9.912966
66.330 9.68923
66.335 9.868052
66.340 9.81145
66.345 9.621432
66.350 9.890398
66.355 9.994625
66.360 9.90823
66.365 9.890444
66.370 9.539695
66.375 9.339828
66.380 9.500781
66.385 9.370827
66.390 9.233605
66.395 9.387032
66.400 9.436507
66.405 9.562038
66.410 9.450408
66.415 8.918471
66.420 8.969841
66.425 8.983666
66.430 8.975179
66.435 8.904238
66.440 9.010793
66.445 9.269117
66.450 9.311712
66.455 9.073282
66.460 9.11006
66.465 8.733465
66.470 8.927052
66.475 8.760937
66.480 9.013756
66.485 9.632594
66.490 10.086143
66.495 10.380103
66.500 10.690291
66.505 10.841496
66.510 11.342971
66.515 11.114634
66.520 10.415205
66.525 10.167644
66.530 10.303009
66.535 10.151649
66.540 9.753714
66.545 9.261506
66.550 8.987181
66.555 9.105266
66.560 8.823047
66.565 8.496766
66.570 8.527363
66.575 8.763643
66.580 9.008076
66.585 9.549112
66.590 9.921039
66.595 10.649823
66.600 10.579354
66.605 10.411611
66.610 10.536647
66.615 10.151107
66.620 9.399495
66.625 9.160456
66.630 8.912298
66.635 9.067519
66.640 9.488942
66.645 9.332354
66.650 9.510076
66.655 10.011986
66.660 9.688889
66.665 9.292955
66.670 9.36286
66.675 9.217031
66.680 9.420094
66.685 9.132796
66.690 8.712091
66.695 8.795773
66.700 8.902621
66.705 9.184454
66.710 9.390093
66.715 9.307371
66.720 9.693321
66.725 9.679743
66.730 9.45362
66.735 9.246036
66.740 8.886844
66.745 8.396937
66.750 8.295705
66.755 8.29185
66.760 8.489737
66.765 8.798095
66.770 8.75526
66.775 8.807744
66.780 9.000554
66.785 8.768543
66.790 8.530334
66.795 8.399655
66.800 8.08401
66.805 7.763779
66.810 7.691867
66.815 7.85656
66.820 8.205006
66.825 8.072922
66.830 7.991062
66.835 8.066759
66.840 8.266665
66.845 8.288646
66.850 8.556067
66.855 8.26727
66.860 8.137095
66.865 8.222292
66.870 8.406206
66.875 8.268533
66.880 7.97647
66.885 7.633244
66.890 7.599811
66.895 7.59135
66.900 7.533069
66.905 7.468254
66.910 7.699928
66.915 7.533508
66.920 7.798919
66.925 8.004665
66.930 8.890583
66.935 9.236738
66.940 9.298929
66.945 9.265747
66.950 9.128683
66.955 9.025914
66.960 9.259051
66.965 9.107645
66.970 8.802965
66.975 9.055921
66.980 9.117131
66.985 9.240752
66.990 9.089198
66.995 8.715146
67.000 8.494326
67.005 8.449657
67.010 8.524053
67.015 8.418736
67.020 8.570151
67.025 8.909188
67.030 8.935399
67.035 8.982942
67.040 9.281836
67.045 9.193196
67.050 9.359702
67.055 9.068873
67.060 8.730721
67.065 8.526908
67.070 8.617099
67.075 9.1854
67.080 9.70746
67.085 9.892479
67.090 10.170991
67.095 10.394658
67.100 11.323012
67.105 10.85892
67.110 9.733479
67.115 8.85647
67.120 8.238789
67.125 8.126132
67.130 7.871869
67.135 6.881173
67.140 7.364205
67.145 7.866476
67.150 8.030337
67.155 8.278296
67.160 8.5593
67.165 9.079102
67.170 8.933399
67.175 8.74283
67.180 8.884175
67.185 9.080381
67.190 9.027194
67.195 8.797635
67.200 8.690133
67.205 9.141419
67.210 8.666503
67.215 8.4884
67.220 8.657199
67.225 9.326591
67.230 9.564235
67.235 9.808563
67.240 9.92257
67.245 10.650548
67.250 10.705495
67.255 10.769575
67.260 10.635582
67.265 10.649593
67.270 10.808508
67.275 10.585895
67.280 10.194721
67.285 10.018861
67.290 9.888359
67.295 9.735333
67.300 9.937636
67.305 9.727337
67.310 9.862536
67.315 10.128078
67.320 10.255231
67.325 9.790463
67.330 8.86021
67.335 8.349192
67.340 8.260153
67.345 8.744064
67.350 8.379215
67.355 8.357228
67.360 8.556898
67.365 9.064783
67.370 8.66543
67.375 8.503801
67.380 8.002625
67.385 8.055149
67.390 8.41151
67.395 8.522368
67.400 8.589489
67.405 8.957143
67.410 8.686
67.415 8.695984
67.420 8.868925
67.425 8.776044
67.430 8.603629
67.435 8.772418
67.440 8.915856
67.445 8.812593
67.450 9.087994
67.455 8.975315
67.460 8.979879
67.465 9.374131
67.470 9.037471
67.475 8.980712
67.480 9.132034
67.485 8.996799
67.490 8.697943
67.495 8.507386
67.500 8.410269
67.505 8.527716
67.510 8.784171
67.515 8.725019
67.520 8.617631
67.525 8.687559
67.530 8.936791
67.535 8.871217
67.540 8.847692
67.545 8.461164
67.550 8.412197
67.555 8.619092
67.560 9.244087
67.565 9.531584
67.570 9.315359
67.575 9.109424
67.580 9.197977
67.585 9.061004
67.590 9.161887
67.595 8.776775
67.600 8.47747
67.605 8.73754
67.610 9.266273
67.615 9.44124
67.620 9.8528
67.625 9.532725
67.630 9.403018
67.635 9.616197
67.640 9.481977
67.645 9.363336
67.650 9.52414
67.655 9.43699
67.660 9.826487
67.665 9.457765
67.670 9.405384
67.675 9.684472
67.680 9.628292
67.685 9.342216
67.690 9.616368
67.695 9.768126
67.700 10.365358
67.705 10.60422
67.710 10.521108
67.715 10.519527
67.720 10.50894
67.725 10.463121
67.730 10.212199
67.735 9.881883
67.740 10.281634
67.745 10.086747
67.750 10.290378
67.755 10.164724
67.760 9.993417
67.765 10.034415
67.770 10.166776
67.775 9.391135
67.780 9.676384
67.785 9.868439
67.790 9.688814
67.795 9.76732
67.800 9.345998
67.805 8.924253
67.810 9.15634
67.815 9.196623
67.820 8.993664
67.825 9.10309
67.830 9.330493
67.835 9.737718
67.840 9.873222
67.845 9.747275
67.850 9.56258
67.855 9.98271
67.860 9.927202
67.865 9.281898
67.870 9.224468
67.875 9.482665
67.880 9.424024
67.885 9.204398
67.890 9.456044
67.895 10.022238
67.900 10.615239
67.905 10.454503
67.910 10.477651
67.915 10.434037
67.920 10.403071
67.925 10.141184
67.930 10.119182
67.935 9.887438
67.940 10.493521
67.945 10.629257
67.950 10.735273
67.955 10.930219
67.960 10.571022
67.965 10.802241
67.970 11.149635
67.975 10.833043
67.980 10.851525
67.985 11.198143
67.990 11.473409
67.995 11.472678
68.000 11.266015
68.005 11.029037
68.010 10.657258
68.015 10.693882
68.020 10.621913
68.025 10.340704
68.030 10.094667
68.035 9.696511
68.040 9.552237
68.045 9.698424
68.050 9.21118
68.055 8.898591
68.060 8.81531
68.065 9.061733
68.070 8.89145
68.075 8.933926
68.080 9.094109
68.085 9.336963
68.090 9.125223
68.095 9.402098
68.100 9.305652
68.105 9.662734
68.110 9.386688
68.115 8.779579
68.120 8.710643
68.125 8.824388
68.130 8.852788
68.135 8.677286
68.140 8.375703
68.145 8.819352
68.150 9.000477
68.155 8.938839
68.160 8.468788
68.165 7.869297
68.170 8.270308
68.175 9.06836
68.180 9.184686
68.185 9.473921
68.190 10.003788
68.195 10.372903
68.200 10.760055
68.205 10.167233
68.210 9.463806
68.215 9.032367
68.220 8.865295
68.225 8.41484
68.230 8.808284
68.235 9.063228
68.240 9.561296
68.245 10.005154
68.250 10.219579
68.255 9.836463
68.260 9.756072
68.265 9.780989
68.270 9.32205
68.275 8.64465
68.280 8.293674
68.285 8.566842
68.290 8.875325
68.295 8.963297
68.300 8.527702
68.305 8.723043
68.310 9.106428
68.315 8.859214
68.320 8.68572
68.325 8.800757
68.330 8.94374
68.335 8.667372
68.340 8.583733
68.345 8.66425
68.350 8.736383
68.355 8.853148
68.360 8.751097
68.365 8.818213
68.370 9.092346
68.375 9.177475
68.380 9.414103
68.385 9.63464
68.390 9.579149
68.395 9.518193
68.400 9.281575
68.405 9.224295
68.410 8.868854
68.415 8.465526
68.420 8.477938
68.425 8.780469
68.430 9.015369
68.435 9.102654
68.440 9.135765
68.445 9.145551
68.450 8.990507
68.455 8.655326
68.460 8.346968
68.465 8.073227
68.470 7.88961
68.475 8.094213
68.480 8.378857
68.485 8.705376
68.490 8.675304
68.495 8.44565
68.500 8.687664
68.505 9.063415
68.510 8.66956
68.515 8.344772
68.520 7.927123
68.525 7.776451
68.530 7.956371
68.535 7.778105
68.540 7.835422
68.545 8.14221
68.550 8.224328
68.555 8.759832
68.560 9.133948
68.565 8.963599
68.570 8.961083
68.575 8.70165
68.580 8.737877
68.585 8.458526
68.590 8.666113
68.595 8.710456
68.600 8.68918
68.605 8.904476
68.610 9.343163
68.615 9.641657
68.620 9.723223
68.625 9.159338
68.630 9.01608
68.635 9.014352
68.640 8.874408
68.645 8.722876
68.650 8.681906
68.655 9.260056
68.660 9.205177
68.665 9.068191
68.670 9.088296
68.675 9.281543
68.680 9.494053
68.685 9.685077
68.690 9.706414
68.695 10.186334
68.700 10.294641
68.705 10.367332
68.710 10.117701
68.715 9.693151
68.720 9.827253
68.725 9.405092
68.730 8.860264
68.735 8.803734
68.740 8.70488
68.745 8.901731
68.750 8.982781
68.755 8.596789
68.760 8.622719
68.765 8.963134
68.770 9.250926
68.775 9.090173
68.780 8.648708
68.785 8.330507
68.790 8.750768
68.795 9.173217
68.800 8.748545
68.805 8.327888
68.810 8.167192
68.815 8.187488
68.820 8.693453
68.825 9.025039
68.830 8.982973
68.835 9.790332
68.840 10.201326
68.845 10.679676
68.850 10.969545
68.855 10.837694
68.860 10.53322
68.865 10.378887
68.870 9.950887
68.875 9.683707
68.880 9.461117
68.885 8.831621
68.890 8.409019
68.895 8.40263
68.900 8.690388
68.905 9.039659
68.910 9.314088
68.915 9.581955
68.920 9.927781
68.925 9.840442
68.930 9.820391
68.935 9.750135
68.940 9.78263
68.945 9.694337
68.950 9.983608
68.955 10.518917
68.960 10.762188
68.965 10.705596
68.970 10.818005
68.975 10.871535
68.980 10.794494
68.985 10.52947
68.990 10.210406
68.995 10.285914
69.000 10.728988
69.005 10.882742
69.010 10.856697
69.015 10.940422
69.020 10.963408
69.025 10.874516
69.030 10.494797
69.035 9.699204
69.040 10.011045
69.045 10.17925
69.050 10.204531
69.055 9.98737
69.060 9.698558
69.065 9.774999
69.070 9.931465
69.075 9.420085
69.080 9.183156
69.085 9.52885
69.090 9.595525
69.095 9.70561
69.100 9.769246
69.105 9.502033
69.110 9.312854
69.115 9.256048
69.120 8.912039
69.125 9.104167
69.130 9.395976
69.135 9.325013
69.140 9.68644
69.145 9.746624
69.150 10.137848
69.155 10.290538
69.160 10.323287
69.165 10.612289
69.170 10.764164
69.175 10.590801
69.180 10.851676
69.185 11.129003
69.190 11.524072
69.195 11.413059
69.200 10.829559
69.205 10.943465
69.210 11.180629
69.215 11.042557
69.220 10.669898
69.225 10.675632
69.230 10.536824
69.235 10.414665
69.240 10.230764
69.245 9.863326
69.250 9.334601
69.255 8.646285
69.260 8.209133
69.265 8.238263
69.270 8.097703
69.275 8.76899
69.280 9.074293
69.285 9.699772
69.290 10.056417
69.295 10.31195
69.300 10.24718
69.305 10.777026
69.310 10.116357
69.315 9.970633
69.320 9.507992
69.325 9.117576
69.330 8.97631
69.335 8.790118
69.340 8.202271
69.345 8.67885
69.350 8.834332
69.355 8.888363
69.360 9.109915
69.365 9.464159
69.370 9.56913
69.375 9.747474
69.380 9.137692
69.385 9.061169
69.390 9.268651
69.395 9.426902
69.400 9.235168
69.405 9.194306
69.410 9.195679
69.415 9.895319
69.420 10.133755
69.425 10.069304
69.430 10.087066
69.435 10.73211
69.440 11.537455
69.445 11.622156
69.450 11.247396
69.455 10.879813
69.460 10.37814
69.465 10.072815
69.470 9.492811
69.475 9.060948
69.480 8.821239
69.485 8.857939
69.490 9.253224
69.495 9.726094
69.500 9.630237
69.505 9.739467
69.510 9.885219
69.515 9.735978
69.520 9.687811
69.525 9.321264
69.530 9.394762
69.535 9.537597
69.540 9.264759
69.545 8.898264
69.550 8.888019
69.555 8.475843
69.560 8.601448
69.565 8.715009
69.570 8.991806
69.575 9.183237
69.580 9.196372
69.585 9.52123
69.590 10.303921
69.595 10.123158
69.600 9.693422
69.605 9.287532
69.610 9.401451
69.615 9.53914
69.620 9.362928
69.625 8.82799
69.630 8.924211
69.635 9.06201
69.640 9.189192
69.645 9.161389
69.650 9.055825
69.655 9.708933
69.660 10.303345
69.665 10.264832
69.670 10.421008
69.675 10.377806
69.680 10.705583
69.685 10.637101
69.690 9.870814
69.695 9.316921
69.700 9.486325
69.705 9.556437
69.710 9.429032
69.715 9.068169
69.720 9.133882
69.725 8.892781
69.730 9.2137
69.735 9.096942
69.740 8.936191
69.745 8.807934
69.750 9.160304
69.755 9.237505
69.760 9.479064
69.765 9.243383
69.770 9.178622
69.775 9.030508
69.780 8.895295
69.785 8.724534
69.790 8.736578
69.795 8.932967
69.800 9.29683
69.805 9.51622
69.810 9.771316
69.815 10.037601
69.820 10.118039
69.825 10.563965
69.830 10.5252
69.835 10.548326
69.840 10.211616
69.845 9.934108
69.850 9.593523
69.855 9.498192
69.860 8.55722
69.865 8.211652
69.870 7.920434
69.875 8.070961
69.880 7.900245
69.885 8.01125
69.890 8.154349
69.895 8.605903
69.900 8.604611
69.905 8.758686
69.910 8.693424
69.915 8.863962
69.920 8.540997
69.925 8.254624
69.930 8.423748
69.935 8.314601
69.940 8.400125
69.945 8.87485
69.950 9.484374
69.955 9.51252
69.960 9.742665
69.965 10.068494
69.970 10.129455
69.975 9.928848
69.980 9.515614
69.985 9.256236
69.990 9.476846
69.995 9.207911
70.000 9.04258
70.005 9.015931
70.010 9.013467
70.015 9.223493
70.020 9.541525
70.025 9.52483
70.030 9.275578
70.035 9.241764
70.040 9.182323
70.045 9.188855
70.050 9.235516
70.055 9.264732
70.060 9.411839
70.065 9.445677
70.070 9.276012
70.075 9.366509
70.080 8.850231
70.085 8.386651
70.090 8.00844
70.095 8.06799
70.100 7.782794
70.105 8.073032
70.110 8.092621
70.115 8.530986
70.120 8.418917
70.125 8.513669
70.130 8.936937
70.135 9.495481
70.140 9.586436
70.145 9.836626
70.150 9.908139
70.155 10.319571
70.160 10.657867
70.165 10.408976
70.170 10.100899
70.175 9.661664
70.180 9.603619
70.185 9.657112
70.190 9.505041
70.195 8.935051
70.200 8.848455
70.205 9.015326
70.210 9.236181
70.215 8.837075
70.220 8.904813
70.225 8.912139
70.230 8.568565
70.235 8.812815
70.240 9.132701
70.245 9.427979
70.250 9.556298
70.255 9.733896
70.260 9.955541
70.265 9.962716
70.270 9.791046
70.275 9.323006
70.280 9.192886
70.285 9.424239
70.290 9.270075
70.295 9.484216
70.300 9.487115
70.305 9.394522
70.310 9.398484
70.315 9.496899
70.320 9.858581
70.325 9.600369
70.330 9.536203
70.335 9.629085
70.340 9.944654
70.345 9.788652
70.350 9.720265
70.355 9.028978
70.360 9.163877
70.365 9.497773
70.370 9.485402
70.375 9.332314
70.380 9.795824
70.385 9.742354
70.390 10.172838
70.395 9.698069
70.400 9.389902
70.405 9.378881
70.410 9.361532
70.415 9.16658
70.420 9.034955
70.425 8.625442
70.430 8.744738
70.435 8.590395
70.440 8.357626
70.445 8.131702
70.450 8.22129
70.455 8.443706
70.460 8.895944
70.465 9.16107
70.470 9.05701
70.475 9.040974
70.480 8.728391
70.485 8.649343
70.490 8.40445
70.495 8.430182
70.500 8.542146
70.505 8.926562
70.510 9.597774
70.515 9.905993
70.520 10.173815
70.525 9.930793
70.530 9.734678
70.535 9.996102
70.540 9.983706
70.545 9.600627
70.550 9.335289
70.555 9.283868
70.560 9.238423
70.565 8.954123
70.570 8.840459
70.575 8.792661
70.580 8.867918
70.585 8.752647
70.590 9.12245
70.595 9.284817
70.600 9.25436
70.605 9.515965
70.610 9.338664
70.615 9.260303
70.620 9.318935
70.625 8.950941
70.630 8.908804
70.635 8.944544
70.640 8.465911
70.645 8.836191
70.650 8.7301
70.655 8.342291
70.660 8.295597
70.665 8.223294
70.670 8.022273
70.675 8.147834
70.680 8.04835
70.685 8.027696
70.690 8.554071
70.695 8.887673
70.700 8.945598
70.705 9.083136
70.710 9.032341
70.715 9.183924
70.720 8.740725
70.725 8.344438
70.730 8.346402
70.735 8.846372
70.740 8.522739
70.745 8.100231
70.750 8.405117
70.755 9.276447
70.760 9.135168
70.765 8.951723
70.770 9.022983
70.775 9.459193
70.780 9.625042
70.785 9.14517
70.790 9.211833
70.795 9.780806
70.800 10.117523
70.805 9.65538
70.810 9.701918
70.815 10.030652
70.820 10.306811
70.825 9.648783
70.830 9.206614
70.835 9.191375
70.840 9.229185
70.845 9.123819
70.850 8.538465
70.855 7.831451
70.860 8.127315
70.865 7.948837
70.870 7.68623
70.875 7.389503
70.880 7.211813
70.885 7.902084
70.890 8.700255
70.895 9.235836
70.900 9.165184
70.905 8.850739
70.910 8.853904
70.915 9.19304
70.920 9.107038
70.925 8.411281
70.930 8.048165
70.935 8.479188
70.940 8.820533
70.945 9.111727
70.950 9.402112
70.955 9.433072
70.960 9.395379
70.965 9.201443
70.970 9.138681
70.975 9.163394
70.980 8.979306
70.985 8.619899
70.990 9.024384
70.995 9.648105
71.000 9.875081
71.005 9.89586
71.010 9.907106
71.015 9.683214
71.020 9.360233
71.025 8.796177
71.030 8.415092
71.035 8.686452
71.040 8.778595
71.045 8.783874
71.050 9.071918
71.055 9.558464
71.060 9.871034
71.065 9.416509
71.070 9.223042
71.075 9.145536
71.080 9.204165
71.085 9.134237
71.090 8.886518
71.095 8.579593
71.100 8.271927
71.105 8.250769
71.110 8.174182
71.115 8.227421
71.120 7.871066
71.125 7.827632
71.130 8.53264
71.135 9.103908
71.140 9.465962
71.145 9.584102
71.150 9.488849
71.155 9.640045
71.160 9.165807
71.165 8.786837
71.170 8.403133
71.175 8.357187
71.180 8.545914
71.185 8.745192
71.190 8.911533
71.195 9.459177
71.200 9.59872
71.205 9.82528
71.210 9.77996
71.215 9.62407
71.220 9.424959
71.225 9.215508
71.230 8.92322
71.235 9.053939
71.240 8.292734
71.245 8.12468
71.250 7.965471
71.255 8.35516
71.260 8.290257
71.265 8.262309
71.270 7.914676
71.275 8.412419
71.280 8.81744
71.285 8.849536
71.290 8.463316
71.295 8.935158
71.300 9.135857
71.305 9.338615
71.310 9.001325
71.315 8.735126
71.320 8.648975
71.325 8.569463
71.330 8.357966
71.335 8.394429
71.340 7.985565
71.345 7.933493
71.350 8.238924
71.355 8.431947
71.360 8.766553
71.365 8.679405
71.370 8.883775
71.375 9.295185
71.380 9.4438
71.385 9.160063
71.390 8.790424
71.395 8.605913
71.400 8.82858
71.405 9.001925
71.410 9.108789
71.415 9.157219
71.420 9.202658
71.425 9.372473
71.430 9.066526
71.435 8.900529
71.440 8.678432
71.445 8.236957
71.450 7.990789
71.455 8.297344
71.460 8.599458
71.465 8.319024
71.470 7.920032
71.475 7.885373
71.480 7.886633
71.485 7.868381
71.490 7.572431
71.495 7.689193
71.500 8.08439
71.505 8.40624
71.510 8.336258
71.515 8.703128
71.520 8.815693
71.525 8.579334
71.530 8.45905
71.535 8.448848
71.540 8.795689
71.545 8.904618
71.550 8.956142
71.555 9.144291
71.560 9.375243
71.565 9.34794
71.570 8.903876
71.575 8.822155
71.580 8.804036
71.585 8.88109
71.590 8.74628
71.595 8.623625
71.600 8.695618
71.605 8.906106
71.610 9.252805
71.615 9.017402
71.620 8.779668
71.625 8.754576
71.630 8.815163
71.635 8.494474
71.640 7.922408
71.645 7.593139
71.650 7.533602
71.655 7.58038
71.660 7.562606
71.665 8.034742
71.670 8.251385
71.675 8.660391
71.680 8.811992
71.685 8.881907
71.690 8.932079
71.695 8.4773
71.700 8.148903
71.705 8.264022
71.710 8.041886
71.715 7.846197
71.720 7.769745
71.725 7.906045
71.730 8.280584
71.735 8.53739
71.740 8.64651
71.745 8.499021
71.750 8.589651
71.755 8.970499
71.760 8.747214
71.765 8.660652
71.770 8.479672
71.775 8.834568
71.780 9.053533
71.785 9.081672
71.790 8.673446
71.795 8.637765
71.800 8.40436
71.805 8.086016
71.810 8.154036
71.815 8.212119
71.820 8.18562
71.825 8.554385
71.830 8.538847
71.835 8.968785
71.840 9.405307
71.845 8.901139
71.850 8.947654
71.855 8.955761
71.860 8.892414
71.865 9.162669
71.870 8.566471
71.875 8.226809
71.880 8.209498
71.885 8.133049
71.890 7.726937
71.895 7.645748
71.900 7.716256
71.905 7.901668
71.910 8.290169
71.915 8.499598
71.920 8.580436
71.925 8.898281
71.930 9.021188
71.935 8.689384
71.940 8.589117
71.945 8.801995
71.950 8.81448
71.955 8.786924
71.960 8.630577
71.965 8.516882
71.970 8.474922
71.975 8.24211
71.980 7.753102
71.985 7.765844
71.990 7.813914
71.995 7.713282
72.000 7.982175
72.005 8.014673
72.010 8.215437
72.015 8.255596
72.020 8.357603
72.025 8.564415
72.030 8.404395
72.035 7.845106
72.040 7.94309
72.045 7.703322
72.050 7.864873
72.055 7.832072
72.060 7.883618
72.065 8.285223
72.070 8.677403
72.075 8.926267
72.080 9.335054
72.085 9.278525
72.090 8.814398
72.095 8.420861
72.100 8.306852
72.105 8.144565
72.110 7.904161
72.115 7.933547
72.120 8.264714
72.125 8.746018
72.130 9.039025
72.135 9.116659
72.140 9.504737
72.145 9.962771
72.150 9.41081
72.155 9.107367
72.160 8.924462
72.165 8.569484
72.170 8.564217
72.175 8.44947
72.180 8.060033
72.185 8.160417
72.190 8.418643
72.195 8.52294
72.200 8.463456
72.205 8.244061
72.210 8.439363
72.215 8.772177
72.220 9.051443
72.225 8.982234
72.230 9.238877
72.235 9.466469
72.240 9.491972
72.245 9.379966
72.250 9.480397
72.255 9.35685
72.260 9.32714
72.265 9.162365
72.270 9.433948
72.275 9.647044
72.280 9.389733
72.285 8.793356
72.290 8.939841
72.295 9.010874
72.300 9.045975
72.305 9.130514
72.310 8.998086
72.315 9.557656
72.320 9.719219
72.325 9.496785
72.330 9.533589
72.335 9.224124
72.340 8.671125
72.345 8.448181
72.350 8.536419
72.355 8.464992
72.360 8.322974
72.365 8.461869
72.370 8.618817
72.375 8.856896
72.380 8.82359
72.385 8.243154
72.390 8.766468
72.395 9.096753
72.400 9.146914
72.405 9.177654
72.410 8.953723
72.415 9.150795
72.420 9.769951
72.425 9.378364
72.430 8.811036
72.435 8.523829
72.440 8.489248
72.445 8.327926
72.450 7.637684
72.455 6.794455
72.460 6.773394
72.465 7.164999
72.470 7.193422
72.475 6.96354
72.480 7.563916
72.485 8.041518
72.490 8.5928
72.495 8.715522
72.500 8.888231
72.505 8.723708
72.510 8.615662
72.515 8.880112
72.520 8.854823
72.525 8.643376
72.530 8.738012
72.535 8.808681
72.540 9.282595
72.545 9.023046
72.550 8.839592
72.555 9.310143
72.560 9.14516
72.565 8.486103
72.570 8.394284
72.575 8.635118
72.580 8.831308
72.585 8.65038
72.590 8.147382
72.595 8.216149
72.600 8.491385
72.605 8.413188
72.610 8.170477
72.615 7.981099
72.620 7.930456
72.625 7.740787
72.630 7.761103
72.635 7.631473
72.640 7.604732
72.645 7.613159
72.650 7.911978
72.655 8.472714
72.660 8.884086
72.665 9.055345
72.670 9.020475
72.675 8.930993
72.680 8.615394
72.685 8.013927
72.690 8.052787
72.695 7.844564
72.700 7.509113
72.705 7.532986
72.710 7.590447
72.715 8.215488
72.720 8.038039
72.725 7.724906
72.730 8.155752
72.735 8.629219
72.740 8.672252
72.745 8.565408
72.750 8.434388
72.755 8.714878
72.760 8.976469
72.765 8.462461
72.770 8.38054
72.775 8.369247
72.780 8.571929
72.785 8.693429
72.790 8.726656
72.795 9.053923
72.800 9.127492
72.805 9.23932
72.810 9.516233
72.815 9.609374
72.820 9.664813
72.825 9.7108
72.830 9.721342
72.835 9.553248
72.840 9.266206
72.845 9.175779
72.850 8.838757
72.855 8.469806
72.860 8.065351
72.865 8.218969
72.870 8.318405
72.875 8.200391
72.880 8.079962
72.885 8.260371
72.890 8.583065
72.895 8.745937
72.900 8.604351
72.905 9.007009
72.910 9.39086
72.915 9.574261
72.920 9.514562
72.925 9.502931
72.930 9.766418
72.935 9.952525
72.940 10.13513
72.945 9.898011
72.950 9.643664
72.955 9.785899
72.960 9.585237
72.965 8.983359
72.970 8.527486
72.975 8.118436
72.980 8.221103
72.985 8.366787
72.990 8.614274
72.995 8.854636
73.000 9.169923
