!@!!GADDS PLOTSO FILE: Chi integration type
!@!!Title/SampleName: map-16e
!@!!Comment: ?
!@!!User: Bruker Instrument Administrator
!@!!Site: University of Illinois Chicago
!@!!Frame: map-16e_01_000.gfrm
!@!!Wavelengths    1.54184   1.54056   1.54439
!@!!Frame angles: 2Theta: 63.000 Omega: 50.000 Phi: 0.000 Chi: 90.000
!@!!Integration range: 2Theta: 53.000 to 73.000  Gamma: -105.000 to -75.000
!@!!Integration method: bin normalized
!@!N
!@!SS
!@!M
!@!L 0.0 0.0 0.0 0.0
!@!XDegrees
!@!YCounts
53.000 3.668038
53.005 3.477189
53.010 3.454897
53.015 3.336035
53.020 3.21998
53.025 3.083119
53.030 3.323129
53.035 4.093344
53.040 4.280681
53.045 4.262648
53.050 4.260731
53.055 4.504228
53.060 4.301136
53.065 4.161143
53.070 3.7643
53.075 3.686128
53.080 3.938676
53.085 3.932798
53.090 3.886818
53.095 3.983126
53.100 3.685637
53.105 3.632739
53.110 3.392336
53.115 3.114731
53.120 3.30219
53.125 3.260235
53.130 3.351748
53.135 3.250408
53.140 3.417758
53.145 3.548885
53.150 3.69762
53.155 3.718757
53.160 3.646613
53.165 3.90723
53.170 4.228481
53.175 4.271701
53.180 4.325252
53.185 4.552962
53.190 4.620438
53.195 5.04408
53.200 4.887065
53.205 4.769045
53.210 4.720997
53.215 4.214469
53.220 3.911535
53.225 3.885044
53.230 3.520963
53.235 3.63029
53.240 3.441938
53.245 3.661765
53.250 4.062777
53.255 3.969149
53.260 3.912713
53.265 3.794311
53.270 3.723365
53.275 3.701543
53.280 3.713339
53.285 3.403213
53.290 3.084617
53.295 2.9763
53.300 2.950092
53.305 3.031368
53.310 2.939006
53.315 2.731999
53.320 3.016263
53.325 3.204026
53.330 3.120797
53.335 2.945606
53.340 2.873343
53.345 2.832389
53.350 3.062884
53.355 2.954708
53.360 3.148192
53.365 3.691807
53.370 3.839934
53.375 3.765881
53.380 3.644863
53.385 3.502571
53.390 3.801917
53.395 3.698409
53.400 3.32527
53.405 3.201329
53.410 3.3167
53.415 3.479752
53.420 3.384827
53.425 2.893016
53.430 2.892079
53.435 3.131138
53.440 3.578433
53.445 3.798032
53.450 3.737726
53.455 3.757679
53.460 4.086949
53.465 4.178631
53.470 4.141983
53.475 3.86285
53.480 4.004977
53.485 3.846853
53.490 4.078245
53.495 3.784992
53.500 3.779582
53.505 3.582057
53.510 3.608184
53.515 3.518302
53.520 3.882775
53.525 4.050609
53.530 4.090412
53.535 3.911786
53.540 3.673039
53.545 3.642601
53.550 3.59889
53.555 3.319172
53.560 3.065981
53.565 3.200802
53.570 3.383924
53.575 3.835985
53.580 3.726377
53.585 3.493738
53.590 3.510451
53.595 3.830976
53.600 4.049092
53.605 3.918534
53.610 3.795198
53.615 3.775489
53.620 4.013184
53.625 3.763468
53.630 3.542686
53.635 3.548458
53.640 3.575134
53.645 3.785144
53.650 4.23128
53.655 4.323592
53.660 4.727172
53.665 4.902492
53.670 4.75895
53.675 4.476005
53.680 4.185103
53.685 3.916597
53.690 3.763464
53.695 3.45278
53.700 3.195566
53.705 3.245238
53.710 3.247247
53.715 3.144006
53.720 2.992996
53.725 2.749707
53.730 2.933615
53.735 3.301743
53.740 3.419009
53.745 3.471886
53.750 3.564232
53.755 3.797007
53.760 3.959059
53.765 4.069633
53.770 3.998035
53.775 3.899116
53.780 3.96847
53.785 3.881501
53.790 3.807654
53.795 3.471501
53.800 3.11277
53.805 2.99893
53.810 3.129006
53.815 3.366796
53.820 3.461141
53.825 3.297253
53.830 3.064077
53.835 3.226823
53.840 3.436673
53.845 3.423196
53.850 3.15099
53.855 3.05236
53.860 3.047083
53.865 3.306825
53.870 3.38934
53.875 3.273588
53.880 3.325788
53.885 3.348888
53.890 3.486743
53.895 3.967818
53.900 4.019724
53.905 3.874448
53.910 3.679621
53.915 3.598242
53.920 3.619652
53.925 3.362494
53.930 3.150518
53.935 3.062359
53.940 3.08919
53.945 3.189223
53.950 3.482267
53.955 3.606112
53.960 3.61247
53.965 3.279769
53.970 3.142963
53.975 3.330065
53.980 3.282396
53.985 2.984631
53.990 3.19853
53.995 3.443011
54.000 3.630163
54.005 3.748453
54.010 3.748587
54.015 3.705229
54.020 3.798825
54.025 3.705807
54.030 3.705745
54.035 3.542208
54.040 3.341721
54.045 3.11815
54.050 3.020238
54.055 3.048747
54.060 2.968089
54.065 3.043854
54.070 3.321294
54.075 3.238396
54.080 3.518993
54.085 3.539103
54.090 3.532893
54.095 3.714809
54.100 3.905427
54.105 3.982251
54.110 3.976949
54.115 3.922023
54.120 3.926882
54.125 4.097254
54.130 4.04354
54.135 3.620188
54.140 3.693878
54.145 3.615285
54.150 3.550922
54.155 3.290216
54.160 3.281511
54.165 3.375168
54.170 3.447221
54.175 3.508172
54.180 3.635397
54.185 3.852052
54.190 3.921489
54.195 3.671768
54.200 3.893199
54.205 3.964063
54.210 4.011026
54.215 3.832878
54.220 3.589056
54.225 3.447442
54.230 3.720981
54.235 3.885583
54.240 3.755811
54.245 3.801569
54.250 4.20322
54.255 4.422093
54.260 4.736265
54.265 4.38172
54.270 4.23855
54.275 4.218071
54.280 4.001566
54.285 3.984927
54.290 4.135812
54.295 3.816028
54.300 3.629203
54.305 3.789238
54.310 3.739451
54.315 3.775559
54.320 3.472571
54.325 3.27808
54.330 3.286073
54.335 3.480514
54.340 3.357243
54.345 3.522698
54.350 3.801893
54.355 3.917464
54.360 3.924669
54.365 3.984621
54.370 3.949873
54.375 4.122111
54.380 4.127609
54.385 3.79483
54.390 3.68456
54.395 3.88703
54.400 3.768122
54.405 3.389135
54.410 3.065038
54.415 2.753065
54.420 2.714619
54.425 2.626798
54.430 2.299809
54.435 3.114761
54.440 3.524836
54.445 3.590123
54.450 3.755094
54.455 3.885562
54.460 4.06025
54.465 3.956753
54.470 3.227802
54.475 3.033857
54.480 3.284325
54.485 3.382152
54.490 3.409151
54.495 3.344429
54.500 3.156566
54.505 3.102969
54.510 3.232621
54.515 3.183429
54.520 3.264705
54.525 3.335016
54.530 3.289585
54.535 3.311973
54.540 3.635619
54.545 3.772223
54.550 3.641257
54.555 3.614609
54.560 3.592438
54.565 3.992345
54.570 4.100461
54.575 3.703427
54.580 3.47566
54.585 3.654263
54.590 3.477911
54.595 3.495409
54.600 3.535841
54.605 3.552592
54.610 3.639866
54.615 3.610064
54.620 3.239242
54.625 3.14956
54.630 2.898946
54.635 2.765311
54.640 3.017269
54.645 3.049455
54.650 3.151273
54.655 3.463378
54.660 3.625496
54.665 3.51831
54.670 3.375355
54.675 3.096544
54.680 3.020892
54.685 2.889289
54.690 2.892428
54.695 3.343922
54.700 3.553576
54.705 3.764539
54.710 3.79743
54.715 3.688491
54.720 3.477626
54.725 3.131472
54.730 2.702226
54.735 2.507622
54.740 2.400196
54.745 2.453535
54.750 2.545444
54.755 2.730477
54.760 2.863074
54.765 3.201912
54.770 3.466531
54.775 3.599
54.780 3.720066
54.785 3.604974
54.790 3.739019
54.795 4.0187
54.800 3.995462
54.805 3.908731
54.810 3.766864
54.815 3.875588
54.820 4.224637
54.825 3.925017
54.830 3.797504
54.835 3.833277
54.840 3.845864
54.845 3.773843
54.850 3.810166
54.855 3.61034
54.860 3.676042
54.865 3.710545
54.870 3.283694
54.875 2.95756
54.880 2.874917
54.885 2.602367
54.890 2.586333
54.895 2.355277
54.900 2.448245
54.905 2.967638
54.910 3.264016
54.915 3.269442
54.920 3.317892
54.925 3.421957
54.930 3.416487
54.935 3.572222
54.940 3.486174
54.945 3.564637
54.950 3.796622
54.955 3.992852
54.960 4.125395
54.965 4.067732
54.970 3.861589
54.975 3.754101
54.980 3.584458
54.985 3.629946
54.990 3.614818
54.995 3.665535
55.000 3.490051
55.005 3.4368
55.010 3.413288
55.015 3.290894
55.020 3.638815
55.025 3.763192
55.030 3.756657
55.035 3.899453
55.040 3.728963
55.045 3.820327
55.050 4.008043
55.055 3.762781
55.060 3.996987
55.065 4.242581
55.070 4.354003
55.075 4.47828
55.080 4.532813
55.085 4.144786
55.090 3.897594
55.095 3.585608
55.100 3.558055
55.105 3.67628
55.110 3.595499
55.115 3.586551
55.120 4.192598
55.125 4.124658
55.130 4.204051
55.135 4.175419
55.140 4.068479
55.145 3.989071
55.150 3.726011
55.155 3.215864
55.160 3.189365
55.165 3.198375
55.170 2.922329
55.175 2.834436
55.180 2.955136
55.185 3.041387
55.190 3.265584
55.195 3.139575
55.200 2.860889
55.205 2.815077
55.210 3.155251
55.215 3.258734
55.220 3.256462
55.225 3.29339
55.230 3.441059
55.235 3.773761
55.240 3.870592
55.245 3.61251
55.250 3.352241
55.255 3.350253
55.260 3.249447
55.265 3.14989
55.270 3.090718
55.275 3.009851
55.280 3.023275
55.285 3.171498
55.290 3.093869
55.295 3.488387
55.300 3.541533
55.305 3.631738
55.310 3.621058
55.315 3.530759
55.320 3.404984
55.325 3.527967
55.330 3.314535
55.335 3.362646
55.340 3.7043
55.345 3.638676
55.350 3.865772
55.355 4.098943
55.360 3.820679
55.365 3.692945
55.370 3.261495
55.375 2.942058
55.380 3.22015
55.385 3.204173
55.390 3.393607
55.395 3.527408
55.400 3.557342
55.405 3.765142
55.410 3.795701
55.415 3.65765
55.420 3.528967
55.425 3.299279
55.430 3.473719
55.435 3.436567
55.440 3.557329
55.445 3.870286
55.450 3.818404
55.455 3.725372
55.460 4.025867
55.465 4.075722
55.470 4.355562
55.475 4.006669
55.480 3.655213
55.485 3.810199
55.490 4.09377
55.495 3.88877
55.500 3.572387
55.505 3.547489
55.510 3.410326
55.515 3.392185
55.520 3.654283
55.525 3.559901
55.530 3.624551
55.535 3.66097
55.540 3.74092
55.545 3.754785
55.550 3.624705
55.555 3.077763
55.560 2.897906
55.565 2.867486
55.570 2.676581
55.575 2.561397
55.580 2.723412
55.585 2.840553
55.590 3.191058
55.595 3.344836
55.600 3.432781
55.605 3.503866
55.610 3.643185
55.615 3.652734
55.620 3.744264
55.625 3.587564
55.630 3.346104
55.635 3.204924
55.640 3.160629
55.645 3.376388
55.650 3.300423
55.655 3.066193
55.660 3.095886
55.665 3.123744
55.670 3.325563
55.675 3.234769
55.680 3.127426
55.685 3.308989
55.690 3.448478
55.695 3.56724
55.700 3.689921
55.705 3.7238
55.710 3.922399
55.715 4.010175
55.720 3.971856
55.725 3.877695
55.730 3.757509
55.735 3.587281
55.740 3.358004
55.745 2.98859
55.750 2.89544
55.755 2.744947
55.760 2.747235
55.765 2.965892
55.770 3.17526
55.775 3.360521
55.780 3.644423
55.785 3.609524
55.790 3.623217
55.795 3.609825
55.800 3.405045
55.805 3.522992
55.810 3.891797
55.815 3.948113
55.820 4.06575
55.825 4.142778
55.830 4.218177
55.835 4.32921
55.840 4.215475
55.845 4.138384
55.850 4.22444
55.855 4.051622
55.860 4.139101
55.865 4.195857
55.870 3.952744
55.875 3.893814
55.880 3.856948
55.885 4.028769
55.890 4.340994
55.895 4.169662
55.900 3.947356
55.905 4.04314
55.910 4.046591
55.915 3.927242
55.920 3.592896
55.925 3.321304
55.930 3.24776
55.935 3.602413
55.940 3.577153
55.945 3.43927
55.950 3.414819
55.955 3.548599
55.960 3.630245
55.965 3.580546
55.970 3.334809
55.975 3.618198
55.980 3.585008
55.985 3.676624
55.990 4.003165
55.995 4.264518
56.000 4.542367
56.005 4.691833
56.010 4.29393
56.015 4.11218
56.020 4.111398
56.025 3.830522
56.030 3.748145
56.035 3.365017
56.040 3.232639
56.045 3.300601
56.050 3.469498
56.055 3.513697
56.060 3.285009
56.065 3.146054
56.070 3.144554
56.075 3.167429
56.080 3.240812
56.085 3.249392
56.090 3.236474
56.095 3.060815
56.100 3.228246
56.105 3.246433
56.110 3.231617
56.115 3.464206
56.120 3.17951
56.125 2.924332
56.130 3.157764
56.135 3.252262
56.140 3.522279
56.145 3.586816
56.150 3.598945
56.155 3.946503
56.160 4.000413
56.165 4.012779
56.170 3.888095
56.175 3.852422
56.180 3.913226
56.185 3.818336
56.190 3.888064
56.195 4.033063
56.200 3.981759
56.205 4.093117
56.210 3.940303
56.215 3.758192
56.220 3.660867
56.225 3.560338
56.230 3.755702
56.235 3.783239
56.240 3.740252
56.245 3.989372
56.250 4.436132
56.255 4.411816
56.260 4.173509
56.265 3.883771
56.270 3.600482
56.275 3.419872
56.280 3.196799
56.285 3.005214
56.290 3.016517
56.295 3.356263
56.300 3.491952
56.305 3.668952
56.310 3.864617
56.315 3.64537
56.320 3.478304
56.325 3.639601
56.330 3.371068
56.335 3.47957
56.340 3.551694
56.345 3.289576
56.350 3.470563
56.355 3.737763
56.360 3.848104
56.365 4.296349
56.370 4.097128
56.375 4.089992
56.380 4.28254
56.385 4.126544
56.390 3.998693
56.395 3.743224
56.400 3.504852
56.405 3.717221
56.410 3.718005
56.415 3.751743
56.420 3.950873
56.425 4.002933
56.430 3.918793
56.435 3.760734
56.440 3.700066
56.445 3.729282
56.450 3.425727
56.455 3.225241
56.460 2.949721
56.465 2.989708
56.470 3.371842
56.475 3.679844
56.480 3.950833
56.485 4.442569
56.490 4.797823
56.495 5.070869
56.500 5.016902
56.505 4.45774
56.510 4.02999
56.515 3.733422
56.520 3.287248
56.525 2.930977
56.530 2.884507
56.535 3.141216
56.540 3.497524
56.545 3.583898
56.550 3.86612
56.555 4.146253
56.560 4.300651
56.565 4.285752
56.570 4.204035
56.575 4.128785
56.580 4.252687
56.585 3.994972
56.590 3.885886
56.595 3.886844
56.600 4.016487
56.605 4.166483
56.610 4.288728
56.615 4.534739
56.620 4.678767
56.625 4.640667
56.630 4.317879
56.635 4.13061
56.640 4.049577
56.645 3.875336
56.650 3.598766
56.655 3.583519
56.660 3.583493
56.665 3.69624
56.670 3.730167
56.675 3.759053
56.680 3.953736
56.685 4.010371
56.690 4.020123
56.695 4.162779
56.700 4.323182
56.705 4.354082
56.710 4.316763
56.715 4.057425
56.720 3.934183
56.725 4.036575
56.730 4.180386
56.735 4.307426
56.740 4.495503
56.745 4.597258
56.750 4.739014
56.755 4.747838
56.760 4.608616
56.765 4.227108
56.770 3.906819
56.775 3.588336
56.780 3.444232
56.785 3.321354
56.790 3.381698
56.795 3.487552
56.800 3.912256
56.805 4.103449
56.810 4.258
56.815 4.315861
56.820 4.422801
56.825 4.428616
56.830 4.399892
56.835 4.246572
56.840 4.257446
56.845 4.230057
56.850 4.220386
56.855 4.09484
56.860 4.041828
56.865 3.852015
56.870 3.837549
56.875 3.916337
56.880 4.001767
56.885 3.949141
56.890 4.161681
56.895 4.260084
56.900 4.541192
56.905 4.365437
56.910 4.155198
56.915 3.889586
56.920 3.669128
56.925 3.523226
56.930 3.232382
56.935 2.795544
56.940 2.693546
56.945 2.803641
56.950 2.999166
56.955 3.191299
56.960 3.239416
56.965 3.200172
56.970 3.435083
56.975 3.52606
56.980 3.390652
56.985 3.304205
56.990 2.951182
56.995 3.120511
57.000 3.670923
57.005 3.659126
57.010 3.975203
57.015 4.205778
57.020 4.396559
57.025 4.537295
57.030 4.395616
57.035 4.195584
57.040 4.222281
57.045 4.187516
57.050 4.010087
57.055 3.873684
57.060 3.72675
57.065 3.546787
57.070 3.433073
57.075 3.555077
57.080 3.866042
57.085 4.062272
57.090 4.134807
57.095 4.308249
57.100 4.287233
57.105 4.58782
57.110 4.560959
57.115 4.225685
57.120 4.254971
57.125 4.370509
57.130 4.402955
57.135 4.277398
57.140 4.256935
57.145 4.064778
57.150 3.760078
57.155 3.445239
57.160 3.445437
57.165 3.297809
57.170 3.075876
57.175 2.557955
57.180 2.321611
57.185 2.644068
57.190 2.943615
57.195 3.111397
57.200 3.489104
57.205 3.839875
57.210 4.299962
57.215 4.739788
57.220 4.718654
57.225 4.571677
57.230 4.385426
57.235 4.140667
57.240 4.185818
57.245 4.137906
57.250 4.001805
57.255 3.90352
57.260 3.861443
57.265 4.103066
57.270 4.290403
57.275 4.396326
57.280 4.163033
57.285 4.257992
57.290 4.383981
57.295 4.489632
57.300 4.368878
57.305 4.163709
57.310 4.049089
57.315 4.098231
57.320 3.919206
57.325 3.684754
57.330 3.531206
57.335 3.305612
57.340 3.36392
57.345 3.637274
57.350 3.826273
57.355 3.800283
57.360 3.874217
57.365 4.069724
57.370 4.246727
57.375 4.298403
57.380 4.110561
57.385 4.166052
57.390 4.369639
57.395 4.419937
57.400 4.236484
57.405 4.475051
57.410 4.403919
57.415 4.184885
57.420 4.160086
57.425 3.748175
57.430 3.492577
57.435 3.426933
57.440 3.175066
57.445 3.010256
57.450 3.225831
57.455 3.4661
57.460 3.813975
57.465 3.848271
57.470 4.041723
57.475 4.150635
57.480 4.043691
57.485 3.975507
57.490 3.609193
57.495 3.614427
57.500 3.98562
57.505 4.004713
57.510 3.704049
57.515 3.719778
57.520 3.627973
57.525 3.870252
57.530 3.92802
57.535 3.781221
57.540 3.60208
57.545 3.636254
57.550 3.952777
57.555 3.696891
57.560 3.716325
57.565 3.644152
57.570 3.454514
57.575 3.664621
57.580 3.693668
57.585 3.520207
57.590 3.64323
57.595 3.309878
57.600 3.053835
57.605 3.130939
57.610 3.114336
57.615 3.011092
57.620 3.199075
57.625 3.236805
57.630 3.468942
57.635 3.530028
57.640 3.534131
57.645 3.818656
57.650 4.206424
57.655 4.103146
57.660 4.165219
57.665 4.031574
57.670 3.92063
57.675 3.826459
57.680 3.446877
57.685 3.182245
57.690 3.145201
57.695 3.092613
57.700 3.088972
57.705 3.196769
57.710 3.440005
57.715 3.7853
57.720 3.902032
57.725 4.283368
57.730 4.376318
57.735 4.439207
57.740 4.268986
57.745 4.149864
57.750 3.885027
57.755 3.511189
57.760 3.242375
57.765 3.266011
57.770 3.491199
57.775 3.530302
57.780 3.484257
57.785 3.439496
57.790 3.498088
57.795 3.376826
57.800 3.374091
57.805 3.576969
57.810 3.63858
57.815 3.614707
57.820 3.911158
57.825 4.106734
57.830 4.182311
57.835 4.185237
57.840 4.010147
57.845 4.015271
57.850 4.228005
57.855 3.901453
57.860 3.689274
57.865 3.649274
57.870 3.686391
57.875 3.662163
57.880 3.820855
57.885 3.715696
57.890 3.938373
57.895 4.509211
57.900 4.482061
57.905 4.346128
57.910 4.591127
57.915 4.276937
57.920 4.303267
57.925 4.322233
57.930 3.848881
57.935 3.864179
57.940 3.682811
57.945 3.420264
57.950 3.515312
57.955 3.496323
57.960 3.128425
57.965 3.039617
57.970 3.022842
57.975 2.945869
57.980 2.850754
57.985 2.881328
57.990 2.914
57.995 3.147958
58.000 3.260318
58.005 3.311705
58.010 3.535941
58.015 3.667147
58.020 3.716961
58.025 3.594597
58.030 3.830013
58.035 3.915489
58.040 4.02532
58.045 4.047121
58.050 4.005472
58.055 3.953455
58.060 3.980687
58.065 4.004138
58.070 4.054156
58.075 4.178356
58.080 3.936322
58.085 3.844209
58.090 3.757054
58.095 3.802986
58.100 3.594496
58.105 3.297667
58.110 3.141091
58.115 3.391683
58.120 3.551128
58.125 3.421733
58.130 3.326366
58.135 3.374231
58.140 3.328323
58.145 3.22099
58.150 3.082459
58.155 3.221788
58.160 3.409024
58.165 3.483369
58.170 3.440006
58.175 4.03107
58.180 4.474868
58.185 4.798031
58.190 4.808698
58.195 4.814145
58.200 4.877512
58.205 4.79287
58.210 4.597963
58.215 4.259264
58.220 4.04578
58.225 3.967578
58.230 3.673294
58.235 3.619312
58.240 3.815618
58.245 3.85939
58.250 3.91823
58.255 3.916742
58.260 3.827074
58.265 3.955679
58.270 3.857364
58.275 3.641585
58.280 3.539575
58.285 3.617642
58.290 3.783972
58.295 3.910579
58.300 3.96956
58.305 4.054043
58.310 4.358669
58.315 4.626612
58.320 4.554347
58.325 4.455649
58.330 4.394137
58.335 4.306845
58.340 4.390355
58.345 4.036506
58.350 3.595942
58.355 3.543227
58.360 3.436369
58.365 3.584208
58.370 3.767151
58.375 3.728943
58.380 3.656923
58.385 3.771505
58.390 3.863137
58.395 3.883933
58.400 3.760725
58.405 3.661397
58.410 3.567545
58.415 3.751707
58.420 3.786318
58.425 3.709683
58.430 3.766572
58.435 3.631156
58.440 3.60393
58.445 3.602134
58.450 3.540538
58.455 3.272885
58.460 3.072317
58.465 3.100119
58.470 3.195878
58.475 3.344563
58.480 3.597771
58.485 3.806672
58.490 4.286906
58.495 4.424624
58.500 4.325672
58.505 4.400779
58.510 4.252082
58.515 4.209995
58.520 4.293992
58.525 4.220925
58.530 4.315696
58.535 4.478292
58.540 4.490014
58.545 4.291084
58.550 4.029234
58.555 3.970361
58.560 4.293538
58.565 4.47372
58.570 4.67772
58.575 4.800239
58.580 4.970554
58.585 4.878386
58.590 4.532439
58.595 4.013182
58.600 3.706237
58.605 3.555967
58.610 3.584469
58.615 3.631746
58.620 3.719618
58.625 4.117109
58.630 4.422079
58.635 4.741183
58.640 4.892418
58.645 5.132014
58.650 5.275845
58.655 5.39246
58.660 5.350168
58.665 5.396038
58.670 5.150913
58.675 5.056888
58.680 5.153601
58.685 4.966219
58.690 5.039076
58.695 4.904863
58.700 4.948524
58.705 5.079389
58.710 4.879141
58.715 4.688135
58.720 4.678863
58.725 4.487697
58.730 4.212696
58.735 4.069333
58.740 3.836719
58.745 3.794082
58.750 3.668586
58.755 3.575049
58.760 3.70596
58.765 3.924366
58.770 3.854144
58.775 3.901193
58.780 3.915988
58.785 3.867861
58.790 3.974015
58.795 3.812094
58.800 3.601013
58.805 3.583855
58.810 3.979292
58.815 4.441867
58.820 4.665129
58.825 4.813171
58.830 5.049695
58.835 5.250473
58.840 5.446582
58.845 5.19064
58.850 5.139994
58.855 5.107603
58.860 5.142194
58.865 5.196437
58.870 5.407729
58.875 5.385864
58.880 5.262335
58.885 4.728845
58.890 4.389453
58.895 4.043939
58.900 3.843323
58.905 3.290236
58.910 3.035802
58.915 3.199889
58.920 3.416233
58.925 3.652421
58.930 3.901804
58.935 4.013168
58.940 4.235944
58.945 4.271597
58.950 4.050515
58.955 3.830549
58.960 3.739995
58.965 3.860551
58.970 3.565658
58.975 3.669865
58.980 3.899617
58.985 4.258874
58.990 4.621971
58.995 4.78291
59.000 4.784408
59.005 4.913452
59.010 4.777257
59.015 4.659781
59.020 4.419171
59.025 4.167758
59.030 3.971847
59.035 3.85381
59.040 4.038247
59.045 4.127198
59.050 4.155147
59.055 4.361409
59.060 4.535724
59.065 4.702455
59.070 4.610573
59.075 4.462493
59.080 4.510689
59.085 4.228622
59.090 3.941027
59.095 3.958803
59.100 3.880631
59.105 4.16482
59.110 4.234849
59.115 4.207472
59.120 4.386297
59.125 4.456429
59.130 4.581467
59.135 4.610562
59.140 4.644426
59.145 4.652565
59.150 4.687481
59.155 4.949914
59.160 5.139548
59.165 5.1833
59.170 5.10185
59.175 4.772939
59.180 4.70849
59.185 4.775283
59.190 4.57979
59.195 4.179732
59.200 4.107951
59.205 4.0187
59.210 4.466968
59.215 4.568074
59.220 4.710881
59.225 4.654643
59.230 4.93112
59.235 4.894335
59.240 5.052385
59.245 4.730205
59.250 4.40238
59.255 4.048756
59.260 3.88777
59.265 3.765539
59.270 3.850662
59.275 3.980802
59.280 3.814775
59.285 3.976057
59.290 4.237181
59.295 4.672377
59.300 4.722211
59.305 4.513277
59.310 4.092736
59.315 4.119731
59.320 3.859938
59.325 3.814021
59.330 3.512653
59.335 3.818123
59.340 3.900798
59.345 4.046942
59.350 4.240215
59.355 4.276482
59.360 4.105104
59.365 4.02781
59.370 3.676354
59.375 3.672317
59.380 3.505906
59.385 3.361932
59.390 3.461706
59.395 3.752397
59.400 4.165899
59.405 4.130624
59.410 4.003506
59.415 4.175187
59.420 4.366664
59.425 4.535249
59.430 4.264319
59.435 3.790861
59.440 4.054998
59.445 4.27824
59.450 4.410685
59.455 4.482788
59.460 4.239784
59.465 4.310851
59.470 4.383954
59.475 4.190656
59.480 4.2271
59.485 3.899746
59.490 3.843944
59.495 4.168561
59.500 4.354745
59.505 4.440068
59.510 4.416993
59.515 4.304923
59.520 4.693684
59.525 4.736767
59.530 4.475491
59.535 4.467441
59.540 4.459909
59.545 4.53055
59.550 4.698093
59.555 4.612808
59.560 4.573354
59.565 4.595356
59.570 4.303881
59.575 4.2861
59.580 4.158672
59.585 4.049924
59.590 4.171625
59.595 4.132767
59.600 4.344471
59.605 4.743347
59.610 4.719505
59.615 4.593627
59.620 4.385058
59.625 4.365115
59.630 4.749804
59.635 4.17007
59.640 3.918195
59.645 4.042122
59.650 4.223609
59.655 4.386683
59.660 4.346293
59.665 4.153787
59.670 4.397409
59.675 4.3225
59.680 4.24291
59.685 4.314502
59.690 4.125791
59.695 3.800661
59.700 3.977977
59.705 4.027299
59.710 4.073831
59.715 4.19871
59.720 4.115436
59.725 4.127926
59.730 4.596853
59.735 4.758743
59.740 4.969114
59.745 5.076252
59.750 5.034903
59.755 5.244181
59.760 5.598489
59.765 5.348086
59.770 4.898254
59.775 4.758403
59.780 4.689164
59.785 4.637046
59.790 4.570237
59.795 4.091897
59.800 4.002691
59.805 3.880629
59.810 3.622486
59.815 3.604451
59.820 3.770568
59.825 3.853099
59.830 4.216516
59.835 4.513359
59.840 4.746832
59.845 4.896178
59.850 4.947736
59.855 4.933311
59.860 5.055049
59.865 4.825455
59.870 4.491186
59.875 4.447189
59.880 4.567554
59.885 4.442698
59.890 4.41194
59.895 4.510363
59.900 4.808004
59.905 4.774576
59.910 4.943293
59.915 5.051374
59.920 5.179322
59.925 4.995834
59.930 4.625632
59.935 4.451268
59.940 4.76954
59.945 4.484849
59.950 4.379117
59.955 4.375699
59.960 4.344237
59.965 4.173275
59.970 3.949449
59.975 3.389943
59.980 3.285902
59.985 3.192958
59.990 3.157234
59.995 3.088647
60.000 3.435496
60.005 3.984433
60.010 4.289757
60.015 4.448012
60.020 4.577805
60.025 4.619466
60.030 4.698286
60.035 4.441507
60.040 4.210405
60.045 4.216515
60.050 4.385438
60.055 4.097291
60.060 3.824605
60.065 3.942731
60.070 4.236781
60.075 4.052589
60.080 4.074736
60.085 4.263122
60.090 4.735014
60.095 5.015797
60.100 4.963836
60.105 5.027764
60.110 5.427168
60.115 5.479098
60.120 5.164709
60.125 4.758977
60.130 4.550269
60.135 4.583334
60.140 4.590631
60.145 4.545273
60.150 4.647227
60.155 4.791656
60.160 4.8777
60.165 5.076698
60.170 4.957602
60.175 4.682984
60.180 4.572261
60.185 4.42638
60.190 4.497281
60.195 4.761099
60.200 4.616767
60.205 4.421263
60.210 4.488993
60.215 4.525
60.220 4.426681
60.225 4.315818
60.230 4.426395
60.235 4.577834
60.240 4.700463
60.245 4.408479
60.250 4.203594
60.255 4.18956
60.260 4.164489
60.265 4.202435
60.270 3.985865
60.275 4.151587
60.280 4.581777
60.285 4.839468
60.290 5.00316
60.295 5.270368
60.300 5.31694
60.305 5.721639
60.310 5.589178
60.315 5.327344
60.320 5.073487
60.325 5.140897
60.330 4.849978
60.335 4.69906
60.340 4.466442
60.345 4.566235
60.350 4.710499
60.355 4.759476
60.360 4.420462
60.365 4.300318
60.370 4.338091
60.375 4.601856
60.380 4.481234
60.385 4.475047
60.390 4.821232
60.395 4.871072
60.400 4.898481
60.405 4.685605
60.410 4.567496
60.415 4.629294
60.420 4.635036
60.425 4.142364
60.430 4.091938
60.435 4.130735
60.440 4.179736
60.445 4.012867
60.450 4.067879
60.455 4.00233
60.460 4.203114
60.465 4.282874
60.470 4.451746
60.475 4.580031
60.480 4.786628
60.485 4.657957
60.490 4.877429
60.495 4.964198
60.500 5.235569
60.505 5.101057
60.510 4.756177
60.515 4.588248
60.520 4.651618
60.525 4.542298
60.530 4.616085
60.535 4.35544
60.540 4.597458
60.545 4.730355
60.550 4.897146
60.555 5.031423
60.560 4.935253
60.565 4.787595
60.570 4.649038
60.575 4.546965
60.580 4.561007
60.585 4.545349
60.590 4.368157
60.595 4.251233
60.600 4.371428
60.605 4.286174
60.610 4.54423
60.615 5.176952
60.620 5.31157
60.625 5.559092
60.630 5.888438
60.635 5.795614
60.640 5.765971
60.645 5.373918
60.650 4.590011
60.655 4.305548
60.660 3.971525
60.665 3.681258
60.670 3.469714
60.675 3.249317
60.680 3.22804
60.685 3.512666
60.690 3.75804
60.695 3.939541
60.700 3.954746
60.705 4.367451
60.710 4.809678
60.715 4.935671
60.720 4.660748
60.725 4.316461
60.730 4.41176
60.735 4.613671
60.740 4.589952
60.745 4.403384
60.750 4.307999
60.755 4.692113
60.760 5.154025
60.765 5.241285
60.770 5.095057
60.775 5.222308
60.780 5.455309
60.785 5.404433
60.790 4.958693
60.795 4.78755
60.800 4.797111
60.805 5.065552
60.810 4.702101
60.815 4.364573
60.820 4.33591
60.825 4.348624
60.830 4.379594
60.835 4.432746
60.840 4.177422
60.845 4.211244
60.850 4.686923
60.855 5.0472
60.860 4.950494
60.865 4.87822
60.870 4.656814
60.875 4.817418
60.880 5.094559
60.885 4.845017
60.890 4.69848
60.895 4.882403
60.900 4.833305
60.905 4.716771
60.910 4.658119
60.915 4.769587
60.920 4.611674
60.925 4.46064
60.930 4.376339
60.935 4.634727
60.940 4.852796
60.945 4.596604
60.950 4.346441
60.955 4.66936
60.960 4.804756
60.965 4.906402
60.970 4.583587
60.975 4.352528
60.980 4.498999
60.985 4.449279
60.990 4.3856
60.995 4.35483
61.000 4.235465
61.005 4.002278
61.010 3.948568
61.015 3.865505
61.020 3.877987
61.025 3.88118
61.030 3.895919
61.035 4.080817
61.040 4.325651
61.045 4.483258
61.050 4.604132
61.055 4.882774
61.060 5.172803
61.065 5.121216
61.070 4.985506
61.075 5.222741
61.080 5.378555
61.085 5.239372
61.090 5.0922
61.095 4.722253
61.100 4.63191
61.105 4.436226
61.110 4.155472
61.115 3.923894
61.120 3.841337
61.125 3.537111
61.130 3.478678
61.135 3.398146
61.140 3.723562
61.145 3.582906
61.150 3.508146
61.155 3.527806
61.160 3.730428
61.165 3.911029
61.170 3.898758
61.175 3.721115
61.180 4.047968
61.185 4.171033
61.190 4.467718
61.195 4.575862
61.200 4.967151
61.205 5.21413
61.210 5.129286
61.215 4.855362
61.220 4.764045
61.225 4.556837
61.230 4.673735
61.235 4.534216
61.240 4.718812
61.245 4.783164
61.250 4.784179
61.255 5.031892
61.260 4.783659
61.265 4.523828
61.270 4.356635
61.275 4.029759
61.280 4.297288
61.285 4.491168
61.290 4.44173
61.295 4.553389
61.300 4.387382
61.305 4.659383
61.310 5.13835
61.315 4.968483
61.320 4.90241
61.325 4.601338
61.330 4.560918
61.335 5.166301
61.340 5.106904
61.345 4.790089
61.350 4.816359
61.355 5.024639
61.360 5.055926
61.365 4.907629
61.370 4.322421
61.375 4.164878
61.380 4.405457
61.385 4.266407
61.390 4.247892
61.395 4.741162
61.400 4.859572
61.405 5.120738
61.410 5.314212
61.415 5.497491
61.420 5.783518
61.425 5.685689
61.430 5.60711
61.435 5.660041
61.440 5.497606
61.445 5.123665
61.450 4.587761
61.455 4.451369
61.460 4.317204
61.465 4.303794
61.470 4.353366
61.475 4.070834
61.480 4.1983
61.485 4.297874
61.490 4.510708
61.495 4.535386
61.500 4.344058
61.505 4.229858
61.510 4.333551
61.515 4.567255
61.520 4.780535
61.525 4.513184
61.530 4.495992
61.535 4.492938
61.540 4.791176
61.545 5.051541
61.550 4.858385
61.555 4.910124
61.560 5.051802
61.565 4.785138
61.570 4.700055
61.575 4.272678
61.580 4.113708
61.585 4.267752
61.590 4.173433
61.595 4.075799
61.600 4.172256
61.605 4.532986
61.610 4.865975
61.615 4.919644
61.620 4.797485
61.625 4.742735
61.630 4.705023
61.635 4.80769
61.640 4.612475
61.645 4.332428
61.650 4.450592
61.655 4.540745
61.660 4.444163
61.665 4.961689
61.670 5.097603
61.675 5.064341
61.680 5.304943
61.685 5.26039
61.690 5.418231
61.695 5.751483
61.700 5.300722
61.705 5.156851
61.710 5.1749
61.715 5.296231
61.720 5.487836
61.725 5.255299
61.730 5.228325
61.735 5.20041
61.740 5.180533
61.745 5.063749
61.750 4.790541
61.755 4.864742
61.760 5.113629
61.765 5.039257
61.770 4.989262
61.775 5.015254
61.780 5.248488
61.785 5.138261
61.790 4.959512
61.795 4.847898
61.800 4.910864
61.805 5.337252
61.810 5.488172
61.815 5.600217
61.820 5.439514
61.825 5.365567
61.830 5.25195
61.835 4.999919
61.840 4.630264
61.845 4.504712
61.850 4.37045
61.855 4.720089
61.860 4.683628
61.865 5.001126
61.870 5.080785
61.875 5.448889
61.880 5.609186
61.885 5.446337
61.890 5.265889
61.895 5.16015
61.900 4.889028
61.905 5.061747
61.910 4.703403
61.915 4.427178
61.920 4.621432
61.925 4.71047
61.930 4.694297
61.935 4.669244
61.940 4.770984
61.945 4.918584
61.950 4.842497
61.955 4.748043
61.960 4.60368
61.965 4.490179
61.970 4.339121
61.975 4.361775
61.980 4.641108
61.985 4.763078
61.990 4.849136
61.995 4.751587
62.000 4.645253
62.005 4.69466
62.010 4.601315
62.015 4.47256
62.020 4.728362
62.025 4.726471
62.030 4.764352
62.035 4.911941
62.040 4.871004
62.045 4.663936
62.050 4.588875
62.055 4.469514
62.060 4.595375
62.065 4.801988
62.070 4.85148
62.075 4.883851
62.080 5.229481
62.085 5.316944
62.090 5.374965
62.095 5.285429
62.100 5.27611
62.105 5.244362
62.110 5.616764
62.115 5.406218
62.120 5.469879
62.125 5.292582
62.130 5.273046
62.135 5.224586
62.140 5.415918
62.145 5.094678
62.150 4.821329
62.155 4.525928
62.160 4.678312
62.165 4.900007
62.170 5.190779
62.175 4.819489
62.180 4.827858
62.185 5.163096
62.190 5.277121
62.195 5.402809
62.200 5.2819
62.205 5.025989
62.210 5.191009
62.215 5.081614
62.220 5.121124
62.225 5.160697
62.230 4.971397
62.235 4.853186
62.240 4.845545
62.245 4.538651
62.250 4.463366
62.255 4.267822
62.260 4.300604
62.265 4.431903
62.270 4.499059
62.275 4.717072
62.280 5.008678
62.285 4.860885
62.290 5.049162
62.295 4.920865
62.300 4.789108
62.305 4.766758
62.310 4.714645
62.315 4.538483
62.320 4.647582
62.325 4.492411
62.330 4.586143
62.335 4.478842
62.340 4.568489
62.345 4.889687
62.350 5.027788
62.355 5.075486
62.360 5.120934
62.365 5.108588
62.370 5.398696
62.375 5.265343
62.380 5.196429
62.385 5.47612
62.390 5.641814
62.395 5.634733
62.400 5.724836
62.405 5.793169
62.410 6.236756
62.415 6.373629
62.420 6.303341
62.425 6.118123
62.430 5.788169
62.435 5.47783
62.440 5.063601
62.445 4.587975
62.450 4.286327
62.455 4.149968
62.460 4.151704
62.465 4.579072
62.470 4.92374
62.475 4.966614
62.480 5.018177
62.485 5.064902
62.490 5.363841
62.495 5.507492
62.500 5.375126
62.505 5.251831
62.510 5.164794
62.515 5.05161
62.520 5.124926
62.525 4.787941
62.530 4.579837
62.535 4.640032
62.540 4.776855
62.545 4.947767
62.550 4.889836
62.555 4.809763
62.560 4.974053
62.565 5.197113
62.570 5.055915
62.575 4.874897
62.580 4.753045
62.585 4.956256
62.590 5.067804
62.595 4.961238
62.600 5.091417
62.605 5.221625
62.610 5.323847
62.615 5.213426
62.620 4.947487
62.625 4.804305
62.630 4.631348
62.635 4.59651
62.640 4.633303
62.645 4.533038
62.650 4.629668
62.655 4.831276
62.660 4.890329
62.665 5.099267
62.670 4.989791
62.675 4.974195
62.680 4.888144
62.685 4.780585
62.690 4.476556
62.695 4.665457
62.700 4.804442
62.705 5.099664
62.710 5.062185
62.715 5.257101
62.720 5.489742
62.725 5.626885
62.730 5.338136
62.735 5.082258
62.740 4.834996
62.745 4.875855
62.750 4.923082
62.755 4.942416
62.760 4.785634
62.765 4.842382
62.770 5.029522
62.775 5.169348
62.780 5.259095
62.785 5.480718
62.790 5.625288
62.795 5.430138
62.800 5.324881
62.805 5.459274
62.810 5.474985
62.815 5.530655
62.820 5.168028
62.825 5.101434
62.830 5.774449
62.835 5.92189
62.840 5.725141
62.845 5.629632
62.850 5.535378
62.855 5.612739
62.860 5.399144
62.865 5.262708
62.870 5.186856
62.875 5.265429
62.880 5.209605
62.885 5.275366
62.890 5.44683
62.895 5.503129
62.900 5.233227
62.905 4.932768
62.910 4.715911
62.915 4.836816
62.920 4.635938
62.925 4.522708
62.930 4.80903
62.935 5.070723
62.940 5.185069
62.945 5.269253
62.950 5.216991
62.955 5.298516
62.960 5.156835
62.965 4.921392
62.970 5.000273
62.975 5.102138
62.980 5.022302
62.985 4.923545
62.990 5.142505
62.995 5.402273
63.000 5.586854
63.005 5.22438
63.010 5.515247
63.015 5.582229
63.020 5.518167
63.025 5.116757
63.030 4.963105
63.035 4.793818
63.040 5.015364
63.045 4.644505
63.050 4.498803
63.055 4.540971
63.060 4.779789
63.065 4.892461
63.070 4.946199
63.075 4.95631
63.080 5.14467
63.085 5.344738
63.090 5.476649
63.095 5.384817
63.100 5.549997
63.105 5.49877
63.110 5.589409
63.115 5.216725
63.120 4.985676
63.125 4.953539
63.130 4.943367
63.135 4.814046
63.140 4.576445
63.145 4.448027
63.150 4.682776
63.155 4.582394
63.160 4.589114
63.165 4.595097
63.170 4.679424
63.175 4.99653
63.180 5.213608
63.185 5.496375
63.190 5.644881
63.195 5.545568
63.200 5.471735
63.205 5.422928
63.210 5.315331
63.215 4.914909
63.220 4.54835
63.225 4.658535
63.230 4.679971
63.235 4.400989
63.240 4.310855
63.245 4.506999
63.250 4.900191
63.255 5.37365
63.260 5.263875
63.265 5.271659
63.270 5.450229
63.275 5.325099
63.280 5.217546
63.285 5.174326
63.290 4.894691
63.295 4.939908
63.300 4.971896
63.305 5.170934
63.310 5.35941
63.315 5.661096
63.320 5.737161
63.325 5.688557
63.330 5.9442
63.335 6.112403
63.340 6.138321
63.345 6.06621
63.350 5.750278
63.355 5.528581
63.360 5.518525
63.365 5.196063
63.370 5.017114
63.375 4.825516
63.380 4.601515
63.385 4.395403
63.390 4.3924
63.395 4.484731
63.400 4.564048
63.405 4.705828
63.410 4.427534
63.415 4.527256
63.420 4.472416
63.425 4.414972
63.430 4.532939
63.435 4.794757
63.440 4.75376
63.445 5.182829
63.450 5.402933
63.455 5.876381
63.460 6.026132
63.465 5.966973
63.470 5.745783
63.475 5.575291
63.480 5.375751
63.485 5.154714
63.490 5.232289
63.495 5.562566
63.500 5.361977
63.505 5.397749
63.510 5.517775
63.515 5.645483
63.520 5.602494
63.525 5.190272
63.530 4.587996
63.535 4.645652
63.540 4.550301
63.545 4.452417
63.550 4.398296
63.555 4.612722
63.560 4.673218
63.565 4.735121
63.570 4.727094
63.575 4.718183
63.580 4.973643
63.585 4.814189
63.590 4.387769
63.595 4.540738
63.600 4.815689
63.605 4.883171
63.610 5.052801
63.615 5.479398
63.620 6.092391
63.625 6.567455
63.630 5.932152
63.635 5.796192
63.640 5.736922
63.645 5.558978
63.650 5.411051
63.655 5.262947
63.660 5.196506
63.665 5.439478
63.670 5.427914
63.675 5.76372
63.680 6.424116
63.685 6.177718
63.690 5.928265
63.695 5.817864
63.700 5.991351
63.705 5.969183
63.710 5.651139
63.715 5.069594
63.720 5.224289
63.725 5.058698
63.730 4.999277
63.735 5.252893
63.740 5.455921
63.745 5.262737
63.750 5.271971
63.755 5.033207
63.760 5.168491
63.765 5.258003
63.770 4.918385
63.775 4.745847
63.780 5.069983
63.785 4.984164
63.790 5.410333
63.795 5.569465
63.800 5.617663
63.805 5.606462
63.810 5.664774
63.815 5.571027
63.820 5.605091
63.825 5.318602
63.830 5.165496
63.835 5.138011
63.840 5.042738
63.845 5.131968
63.850 5.266017
63.855 5.247523
63.860 5.153825
63.865 5.300959
63.870 5.387918
63.875 5.696649
63.880 5.561248
63.885 5.515528
63.890 5.774937
63.895 6.063873
63.900 5.872851
63.905 5.635367
63.910 5.268749
63.915 5.099262
63.920 5.06635
63.925 4.871858
63.930 4.79327
63.935 4.85817
63.940 4.808009
63.945 5.038353
63.950 5.296764
63.955 5.067658
63.960 5.300926
63.965 5.325268
63.970 5.378246
63.975 5.302642
63.980 4.866387
63.985 5.037234
63.990 5.313293
63.995 4.94229
64.000 4.907282
64.005 5.004869
64.010 5.177404
64.015 5.198386
64.020 5.131847
64.025 5.491089
64.030 5.640848
64.035 6.006674
64.040 6.105542
64.045 6.220623
64.050 6.360245
64.055 6.18808
64.060 5.74955
64.065 5.693253
64.070 5.592164
64.075 5.716273
64.080 5.877647
64.085 5.716038
64.090 5.666731
64.095 5.869774
64.100 5.649421
64.105 5.159445
64.110 4.961554
64.115 4.672391
64.120 4.935809
64.125 4.840333
64.130 4.676583
64.135 4.763767
64.140 4.877221
64.145 4.904457
64.150 5.169751
64.155 5.179988
64.160 5.426878
64.165 5.685191
64.170 5.989204
64.175 6.221665
64.180 6.132156
64.185 5.993166
64.190 6.093058
64.195 5.99542
64.200 5.786673
64.205 5.767431
64.210 5.674277
64.215 5.920325
64.220 6.166643
64.225 6.03027
64.230 5.911186
64.235 5.773888
64.240 5.583518
64.245 5.688985
64.250 5.49987
64.255 5.479112
64.260 5.601427
64.265 5.47444
64.270 5.729999
64.275 6.051933
64.280 6.355374
64.285 6.793738
64.290 6.857761
64.295 6.898723
64.300 7.222165
64.305 6.949459
64.310 6.741539
64.315 6.601811
64.320 6.30089
64.325 6.073769
64.330 6.20431
64.335 5.992869
64.340 6.349771
64.345 6.322738
64.350 6.381242
64.355 6.548022
64.360 6.771075
64.365 7.002635
64.370 7.106314
64.375 6.979897
64.380 7.349324
64.385 7.36481
64.390 7.2505
64.395 7.252098
64.400 6.794496
64.405 6.738527
64.410 6.772885
64.415 6.524763
64.420 6.416959
64.425 6.573842
64.430 6.755726
64.435 6.79766
64.440 6.754959
64.445 6.863285
64.450 6.654845
64.455 6.578711
64.460 6.60888
64.465 6.729059
64.470 6.74441
64.475 7.109432
64.480 6.870505
64.485 6.999291
64.490 7.005995
64.495 6.880779
64.500 6.956454
64.505 7.257666
64.510 7.030952
64.515 6.995124
64.520 6.918241
64.525 6.893108
64.530 6.847471
64.535 6.668195
64.540 6.802885
64.545 6.814032
64.550 6.944185
64.555 6.773962
64.560 6.591563
64.565 6.545903
64.570 6.222316
64.575 5.8423
64.580 5.941322
64.585 6.173408
64.590 6.23408
64.595 6.421365
64.600 6.631761
64.605 6.652699
64.610 6.855788
64.615 7.133041
64.620 7.122114
64.625 7.448107
64.630 7.275212
64.635 6.932954
64.640 7.29349
64.645 7.054893
64.650 6.703958
64.655 6.463919
64.660 6.157725
64.665 6.31132
64.670 6.228358
64.675 5.856171
64.680 5.794642
64.685 5.636075
64.690 5.630299
64.695 5.394178
64.700 5.219365
64.705 5.541924
64.710 5.541246
64.715 5.367436
64.720 5.284328
64.725 5.355269
64.730 5.691846
64.735 6.025877
64.740 5.792802
64.745 5.555302
64.750 5.450518
64.755 5.560646
64.760 5.494748
64.765 5.348362
64.770 5.475246
64.775 5.867145
64.780 6.344994
64.785 6.586976
64.790 6.319394
64.795 6.22862
64.800 6.190387
64.805 6.00849
64.810 5.665131
64.815 5.749386
64.820 5.738093
64.825 5.953269
64.830 6.084498
64.835 5.988632
64.840 5.831169
64.845 5.744661
64.850 5.582051
64.855 5.737597
64.860 5.662462
64.865 5.511487
64.870 5.453403
64.875 5.536567
64.880 5.762793
64.885 5.566652
64.890 5.350475
64.895 5.411439
64.900 5.558424
64.905 5.672732
64.910 5.416364
64.915 5.293229
64.920 5.583272
64.925 5.679651
64.930 5.612046
64.935 5.49858
64.940 5.725428
64.945 5.977305
64.950 6.029535
64.955 6.300041
64.960 6.256922
64.965 6.168481
64.970 6.279688
64.975 6.30955
64.980 6.494282
64.985 6.44423
64.990 6.336357
64.995 6.622688
65.000 6.775677
65.005 6.762515
65.010 6.744049
65.015 6.827277
65.020 6.942626
65.025 6.918446
65.030 7.098799
65.035 6.965745
65.040 6.912776
65.045 6.812066
65.050 6.770476
65.055 6.77926
65.060 6.56703
65.065 6.115514
65.070 6.10083
65.075 5.920102
65.080 5.970268
65.085 5.914766
65.090 5.727454
65.095 5.968039
65.100 6.150914
65.105 6.192773
65.110 6.184001
65.115 5.911022
65.120 6.016241
65.125 5.795598
65.130 5.679451
65.135 5.576064
65.140 5.606423
65.145 5.915428
65.150 6.014947
65.155 5.987349
65.160 6.172183
65.165 6.080469
65.170 6.090108
65.175 6.220477
65.180 6.046933
65.185 6.317272
65.190 6.411867
65.195 6.554432
65.200 6.670765
65.205 6.757679
65.210 6.770962
65.215 7.14481
65.220 6.910706
65.225 6.741869
65.230 6.455033
65.235 6.318312
65.240 6.53175
65.245 6.53027
65.250 6.204375
65.255 5.919199
65.260 5.824423
65.265 6.054032
65.270 6.492033
65.275 6.448503
65.280 6.825597
65.285 6.988842
65.290 7.490351
65.295 7.158235
65.300 7.257468
65.305 7.338993
65.310 7.266687
65.315 6.95967
65.320 6.704508
65.325 6.51527
65.330 6.90971
65.335 6.734158
65.340 6.564003
65.345 6.505989
65.350 6.412109
65.355 6.628101
65.360 6.600972
65.365 6.372362
65.370 6.180987
65.375 6.055581
65.380 6.152883
65.385 6.252835
65.390 6.260095
65.395 6.369053
65.400 6.440037
65.405 6.545077
65.410 6.955492
65.415 6.667775
65.420 6.644226
65.425 6.560987
65.430 6.835616
65.435 7.251906
65.440 7.361429
65.445 7.209383
65.450 7.275543
65.455 7.351255
65.460 7.481898
65.465 7.265343
65.470 6.832291
65.475 6.132792
65.480 6.078517
65.485 6.024233
65.490 5.900491
65.495 5.927613
65.500 5.971115
65.505 6.250988
65.510 6.983239
65.515 6.828773
65.520 6.998528
65.525 7.220503
65.530 7.228915
65.535 6.954572
65.540 6.865561
65.545 6.939975
65.550 7.185028
65.555 6.917145
65.560 6.53812
65.565 6.36448
65.570 6.620131
65.575 6.681495
65.580 6.668815
65.585 6.468985
65.590 6.745777
65.595 7.106099
65.600 7.029354
65.605 7.136042
65.610 7.052446
65.615 6.80442
65.620 6.80662
65.625 7.031242
65.630 6.891267
65.635 6.818729
65.640 6.939066
65.645 7.062829
65.650 7.285957
65.655 7.106367
65.660 6.778121
65.665 6.871511
65.670 6.783133
65.675 6.76551
65.680 6.626627
65.685 6.282831
65.690 6.414844
65.695 6.43092
65.700 6.47834
65.705 6.337536
65.710 6.090967
65.715 6.191449
65.720 6.664831
65.725 6.778912
65.730 6.228665
65.735 6.030197
65.740 6.110604
65.745 5.961556
65.750 5.921879
65.755 5.926623
65.760 6.106644
65.765 6.253001
65.770 6.249963
65.775 6.446728
65.780 6.352333
65.785 6.265693
65.790 5.910886
65.795 5.880289
65.800 6.225873
65.805 6.496727
65.810 6.558803
65.815 6.709281
65.820 6.692653
65.825 7.167867
65.830 7.345539
65.835 7.36619
65.840 7.072225
65.845 7.299215
65.850 6.993248
65.855 6.726165
65.860 6.130119
65.865 5.723204
65.870 5.479493
65.875 5.538643
65.880 5.322982
65.885 5.907539
65.890 6.367404
65.895 6.39628
65.900 6.327702
65.905 6.389366
65.910 6.498547
65.915 6.542703
65.920 6.198341
65.925 6.150843
65.930 6.506677
65.935 6.765177
65.940 7.007587
65.945 6.991287
65.950 7.13378
65.955 7.342145
65.960 7.088193
65.965 6.989928
65.970 7.024187
65.975 6.706495
65.980 6.394433
65.985 6.313684
65.990 6.117325
65.995 6.075397
66.000 6.047151
66.005 6.111912
66.010 6.038903
66.015 5.785324
66.020 5.520473
66.025 5.315631
66.030 5.491519
66.035 5.135664
66.040 4.896193
66.045 5.265265
66.050 5.548858
66.055 5.55096
66.060 5.733923
66.065 6.016632
66.070 6.149135
66.075 5.753668
66.080 5.546502
66.085 5.631697
66.090 5.855056
66.095 5.712579
66.100 5.484754
66.105 5.800208
66.110 6.195843
66.115 6.061039
66.120 5.845395
66.125 5.91738
66.130 6.330598
66.135 6.388898
66.140 6.187052
66.145 6.090888
66.150 6.271447
66.155 6.46156
66.160 6.349191
66.165 6.288371
66.170 6.070423
66.175 6.099252
66.180 6.130228
66.185 5.773423
66.190 5.651216
66.195 5.821227
66.200 5.789964
66.205 5.749653
66.210 5.943597
66.215 6.192945
66.220 6.46171
66.225 6.813008
66.230 6.649631
66.235 6.703284
66.240 6.771642
66.245 6.744415
66.250 6.942935
66.255 6.715412
66.260 6.443916
66.265 6.227695
66.270 5.991618
66.275 5.928903
66.280 5.870114
66.285 5.575193
66.290 5.652783
66.295 5.339672
66.300 5.383939
66.305 5.680388
66.310 5.472822
66.315 5.28441
66.320 5.196824
66.325 5.37643
66.330 5.743484
66.335 5.693245
66.340 5.492634
66.345 5.503643
66.350 5.666103
66.355 5.715888
66.360 5.483943
66.365 5.44643
66.370 5.518141
66.375 5.48215
66.380 5.319449
66.385 5.196754
66.390 5.191373
66.395 5.212477
66.400 5.066364
66.405 5.188142
66.410 5.660502
66.415 6.096327
66.420 6.577286
66.425 6.972383
66.430 7.19381
66.435 7.382875
66.440 7.255818
66.445 7.051486
66.450 7.268159
66.455 7.105756
66.460 6.857232
66.465 6.915625
66.470 6.984248
66.475 6.923277
66.480 6.619543
66.485 6.106677
66.490 5.816041
66.495 5.478095
66.500 5.144125
66.505 4.924109
66.510 4.982092
66.515 5.372456
66.520 5.471232
66.525 5.473661
66.530 5.794289
66.535 5.808175
66.540 6.290311
66.545 6.291233
66.550 5.647456
66.555 5.509733
66.560 5.467986
66.565 5.344496
66.570 5.21955
66.575 4.550712
66.580 4.529236
66.585 4.772194
66.590 5.072984
66.595 5.048803
66.600 4.827067
66.605 5.04689
66.610 5.276034
66.615 5.469743
66.620 5.573678
66.625 6.003805
66.630 5.947975
66.635 6.119262
66.640 6.214155
66.645 6.111737
66.650 5.874251
66.655 5.791024
66.660 5.21427
66.665 5.41196
66.670 5.264477
66.675 5.095212
66.680 5.438811
66.685 5.306796
66.690 5.163366
66.695 5.004395
66.700 4.974214
66.705 5.13874
66.710 5.236797
66.715 4.976072
66.720 5.560578
66.725 5.757644
66.730 6.221663
66.735 6.642046
66.740 6.783039
66.745 6.543996
66.750 6.586162
66.755 6.121807
66.760 6.046269
66.765 5.560677
66.770 5.386337
66.775 5.12505
66.780 5.159978
66.785 5.014632
66.790 4.885577
66.795 5.055375
66.800 5.237859
66.805 5.344385
66.810 5.648324
66.815 5.839252
66.820 6.038969
66.825 5.938927
66.830 5.894893
66.835 5.844463
66.840 5.880864
66.845 5.826318
66.850 5.64914
66.855 5.765056
66.860 6.169076
66.865 5.880286
66.870 5.524182
66.875 5.370283
66.880 5.493988
66.885 5.510957
66.890 5.117055
66.895 4.974902
66.900 5.115406
66.905 5.411322
66.910 5.403432
66.915 5.691
66.920 6.115905
66.925 6.570899
66.930 6.703732
66.935 6.475418
66.940 6.42177
66.945 6.382514
66.950 5.83467
66.955 5.470382
66.960 5.323156
66.965 5.453894
66.970 5.767771
66.975 6.031973
66.980 6.191621
66.985 6.492705
66.990 6.470893
66.995 6.653496
67.000 6.566202
67.005 6.275527
67.010 6.003633
67.015 5.888232
67.020 5.548056
67.025 5.47631
67.030 5.260524
67.035 5.447553
67.040 5.65796
67.045 5.459299
67.050 5.55002
67.055 5.914381
67.060 6.230725
67.065 6.284575
67.070 6.056163
67.075 6.002972
67.080 6.266582
67.085 6.437514
67.090 6.221609
67.095 5.758747
67.100 5.829552
67.105 5.802567
67.110 5.934197
67.115 5.788761
67.120 5.409275
67.125 5.369224
67.130 5.587146
67.135 5.492111
67.140 5.442449
67.145 5.328558
67.150 5.476376
67.155 5.60853
67.160 5.839939
67.165 5.845095
67.170 5.861145
67.175 6.158535
67.180 6.080862
67.185 5.827354
67.190 5.878621
67.195 5.705343
67.200 5.682343
67.205 5.509121
67.210 5.142406
67.215 5.246753
67.220 5.460346
67.225 5.459286
67.230 5.468776
67.235 5.35415
67.240 5.394341
67.245 5.747164
67.250 5.665238
67.255 5.530441
67.260 5.532903
67.265 5.923525
67.270 6.173275
67.275 6.610617
67.280 6.495659
67.285 6.611197
67.290 6.73197
67.295 6.976936
67.300 6.883644
67.305 6.866616
67.310 6.43879
67.315 6.588491
67.320 6.702567
67.325 6.710016
67.330 6.419203
67.335 6.072264
67.340 6.120415
67.345 6.045074
67.350 6.209488
67.355 5.878669
67.360 5.753417
67.365 5.844712
67.370 5.666602
67.375 5.354192
67.380 5.390873
67.385 5.361184
67.390 5.396605
67.395 5.762321
67.400 5.593969
67.405 5.8412
67.410 6.061238
67.415 5.83315
67.420 5.623044
67.425 5.688103
67.430 5.558089
67.435 5.650699
67.440 5.737533
67.445 5.846765
67.450 6.348857
67.455 6.198657
67.460 6.273861
67.465 6.097996
67.470 6.116754
67.475 6.04777
67.480 6.124971
67.485 6.063679
67.490 6.009995
67.495 5.580737
67.500 5.813272
67.505 5.596154
67.510 5.783722
67.515 5.689188
67.520 5.563633
67.525 5.643989
67.530 5.730432
67.535 5.515873
67.540 5.87327
67.545 5.680772
67.550 5.8486
67.555 5.912775
67.560 6.104997
67.565 6.392457
67.570 6.201655
67.575 6.123408
67.580 6.055041
67.585 5.810738
67.590 5.875442
67.595 5.665894
67.600 5.676161
67.605 6.001289
67.610 5.781492
67.615 5.880522
67.620 5.845296
67.625 5.804133
67.630 6.167034
67.635 6.03024
67.640 5.948347
67.645 6.25694
67.650 6.080538
67.655 6.081071
67.660 6.241065
67.665 6.03611
67.670 5.952378
67.675 5.783764
67.680 5.59148
67.685 5.7046
67.690 5.555195
67.695 5.598442
67.700 5.476185
67.705 5.522799
67.710 5.591583
67.715 5.788074
67.720 5.862195
67.725 5.920697
67.730 5.779062
67.735 5.832702
67.740 6.195539
67.745 6.359398
67.750 6.526927
67.755 6.491241
67.760 6.926856
67.765 6.966627
67.770 7.014042
67.775 7.005594
67.780 7.126796
67.785 7.272444
67.790 7.260374
67.795 6.8341
67.800 7.092197
67.805 7.371881
67.810 6.999036
67.815 6.518521
67.820 6.48745
67.825 6.323825
67.830 6.554292
67.835 6.263111
67.840 5.91924
67.845 5.880041
67.850 6.216667
67.855 5.715472
67.860 5.853395
67.865 5.703635
67.870 6.108078
67.875 6.34492
67.880 6.551735
67.885 6.150727
67.890 6.292843
67.895 6.264351
67.900 6.208486
67.905 5.973747
67.910 6.0023
67.915 5.997354
67.920 6.21536
67.925 6.499657
67.930 6.772198
67.935 7.164994
67.940 7.118912
67.945 6.992744
67.950 6.90558
67.955 6.8658
67.960 6.976951
67.965 6.774589
67.970 6.072863
67.975 5.938559
67.980 5.715864
67.985 5.495012
67.990 5.677924
67.995 5.637467
68.000 5.847584
68.005 5.976995
68.010 6.21276
68.015 6.603453
68.020 6.737571
68.025 6.445779
68.030 5.911379
68.035 5.905883
68.040 6.004645
68.045 6.055978
68.050 6.051364
68.055 6.263371
68.060 6.464986
68.065 6.618064
68.070 6.607592
68.075 6.539941
68.080 6.490036
68.085 6.206579
68.090 6.007796
68.095 6.023178
68.100 6.277022
68.105 6.254846
68.110 6.415161
68.115 6.26171
68.120 6.163305
68.125 6.26495
68.130 6.272455
68.135 6.612003
68.140 6.629428
68.145 6.62217
68.150 7.444844
68.155 7.760256
68.160 7.585379
68.165 7.494582
68.170 6.854205
68.175 6.742968
68.180 6.766389
68.185 6.424126
68.190 6.216056
68.195 6.028626
68.200 5.821743
68.205 5.865837
68.210 5.520795
68.215 5.314907
68.220 5.59911
68.225 6.347999
68.230 6.899484
68.235 6.994726
68.240 7.189713
68.245 7.442801
68.250 7.343813
68.255 6.878497
68.260 6.569832
68.265 6.641923
68.270 6.842483
68.275 6.630764
68.280 6.785112
68.285 6.898083
68.290 6.753226
68.295 6.458733
68.300 6.103537
68.305 6.038926
68.310 6.361042
68.315 6.367472
68.320 6.133151
68.325 6.183818
68.330 6.631807
68.335 6.614038
68.340 6.530878
68.345 6.447129
68.350 6.247703
68.355 6.406518
68.360 6.616163
68.365 6.143788
68.370 6.242316
68.375 6.291195
68.380 6.31228
68.385 6.781451
68.390 6.739602
68.395 6.40222
68.400 6.48772
68.405 6.733089
68.410 6.70994
68.415 6.433725
68.420 6.492708
68.425 6.782284
68.430 7.069064
68.435 6.88009
68.440 6.420983
68.445 6.655956
68.450 6.658885
68.455 6.233479
68.460 5.888516
68.465 6.024368
68.470 6.543447
68.475 6.65224
68.480 6.620264
68.485 6.556514
68.490 6.865729
68.495 6.868847
68.500 6.611551
68.505 6.725029
68.510 6.652144
68.515 6.604036
68.520 6.808732
68.525 6.912328
68.530 7.566446
68.535 7.606027
68.540 7.474205
68.545 7.879244
68.550 8.41873
68.555 8.64178
68.560 8.384697
68.565 7.820992
68.570 7.595843
68.575 7.640193
68.580 7.408601
68.585 6.978533
68.590 6.96578
68.595 6.92719
68.600 7.089542
68.605 7.287619
68.610 7.64741
68.615 7.592378
68.620 7.329058
68.625 6.979967
68.630 6.998823
68.635 6.968663
68.640 7.267992
68.645 7.330647
68.650 7.581203
68.655 8.130734
68.660 8.500001
68.665 8.469533
68.670 8.735096
68.675 8.584288
68.680 8.013156
68.685 7.943849
68.690 7.642497
68.695 7.631805
68.700 8.077887
68.705 8.031556
68.710 7.862587
68.715 7.904169
68.720 7.974767
68.725 8.238723
68.730 8.361403
68.735 8.064589
68.740 8.29056
68.745 8.292207
68.750 8.177468
68.755 8.048445
68.760 7.986761
68.765 7.971882
68.770 7.687982
68.775 7.432398
68.780 7.355456
68.785 7.595925
68.790 7.730341
68.795 7.631625
68.800 7.538881
68.805 7.774442
68.810 7.548534
68.815 7.931078
68.820 7.675776
68.825 7.28297
68.830 6.941967
68.835 6.797609
68.840 7.231977
68.845 7.172521
68.850 6.753413
68.855 6.859198
68.860 7.31364
68.865 7.502291
68.870 7.501228
68.875 7.276929
68.880 7.539561
68.885 7.601722
68.890 7.668715
68.895 7.542786
68.900 7.644746
68.905 7.439434
68.910 7.455396
68.915 7.429736
68.920 7.312809
68.925 7.070245
68.930 6.721361
68.935 6.546005
68.940 6.636001
68.945 6.189891
68.950 6.379223
68.955 6.518044
68.960 6.634912
68.965 7.015993
68.970 6.841989
68.975 7.069486
68.980 7.29597
68.985 7.201715
68.990 7.241282
68.995 7.031837
69.000 6.938285
69.005 7.046792
69.010 6.997714
69.015 6.962623
69.020 6.730103
69.025 6.810009
69.030 6.809118
69.035 6.485192
69.040 6.627423
69.045 6.376285
69.050 6.261932
69.055 6.344034
69.060 6.475513
69.065 7.039127
69.070 7.645475
69.075 7.708924
69.080 7.917128
69.085 8.167829
69.090 8.353875
69.095 8.083774
69.100 7.756866
69.105 7.546875
69.110 7.199863
69.115 7.128857
69.120 7.080507
69.125 6.958132
69.130 7.153356
69.135 7.01769
69.140 7.137377
69.145 7.145623
69.150 7.239064
69.155 7.172504
69.160 7.333995
69.165 7.218008
69.170 7.042716
69.175 6.905301
69.180 6.824011
69.185 6.850242
69.190 7.023036
69.195 7.215377
69.200 7.543416
69.205 7.839127
69.210 7.613418
69.215 7.575768
69.220 7.62266
69.225 7.323902
69.230 6.97442
69.235 6.600017
69.240 6.275978
69.245 6.308294
69.250 6.601236
69.255 6.292006
69.260 6.499521
69.265 6.15853
69.270 5.999743
69.275 6.07782
69.280 5.7815
69.285 5.528732
69.290 5.602036
69.295 5.697919
69.300 6.18076
69.305 6.701906
69.310 6.743286
69.315 6.631253
69.320 6.559292
69.325 6.545214
69.330 6.448397
69.335 6.455363
69.340 6.212355
69.345 6.320539
69.350 6.755029
69.355 7.003219
69.360 6.980296
69.365 6.995535
69.370 6.59794
69.375 6.481971
69.380 6.689383
69.385 6.778972
69.390 6.794271
69.395 6.871714
69.400 7.293857
69.405 7.407516
69.410 7.765001
69.415 7.532303
69.420 7.398919
69.425 7.643958
69.430 7.324789
69.435 7.05248
69.440 7.006033
69.445 6.731403
69.450 6.779642
69.455 6.612423
69.460 6.222265
69.465 6.466508
69.470 6.648211
69.475 6.832711
69.480 6.985476
69.485 6.756197
69.490 6.954479
69.495 7.201075
69.500 6.813219
69.505 6.514269
69.510 6.289263
69.515 6.149466
69.520 6.115609
69.525 6.046614
69.530 5.855442
69.535 5.844474
69.540 6.00645
69.545 6.095962
69.550 6.235011
69.555 5.807011
69.560 5.705033
69.565 5.753513
69.570 5.886521
69.575 5.856371
69.580 5.803737
69.585 5.67975
69.590 5.965886
69.595 6.053308
69.600 6.100099
69.605 6.150892
69.610 6.397458
69.615 6.525383
69.620 6.804084
69.625 6.686085
69.630 6.721866
69.635 6.758355
69.640 6.686758
69.645 6.472221
69.650 6.39953
69.655 6.417968
69.660 6.400704
69.665 6.399728
69.670 6.322788
69.675 6.387067
69.680 6.669683
69.685 6.582026
69.690 6.58787
69.695 6.652575
69.700 6.610034
69.705 6.63925
69.710 6.404408
69.715 6.262973
69.720 6.337911
69.725 6.370331
69.730 6.304269
69.735 6.611352
69.740 6.582214
69.745 6.611123
69.750 6.428654
69.755 6.315797
69.760 6.183768
69.765 6.163015
69.770 6.029621
69.775 6.219876
69.780 6.438372
69.785 6.594861
69.790 6.844951
69.795 6.961078
69.800 7.070521
69.805 7.19675
69.810 7.038651
69.815 6.869834
69.820 6.623903
69.825 6.464382
69.830 6.402999
69.835 6.095111
69.840 5.866516
69.845 5.929174
69.850 6.061131
69.855 6.464249
69.860 6.888497
69.865 7.425233
69.870 7.521229
69.875 7.499191
69.880 7.787164
69.885 7.695259
69.890 7.351865
69.895 7.181502
69.900 6.984923
69.905 6.913225
69.910 6.870462
69.915 6.690279
69.920 6.576879
69.925 6.372858
69.930 6.15998
69.935 6.490098
69.940 6.72577
69.945 6.920755
69.950 7.085569
69.955 7.55417
69.960 7.774731
69.965 7.951869
69.970 7.893726
69.975 7.665022
69.980 7.205367
69.985 6.984832
69.990 6.755696
69.995 6.520922
70.000 6.179821
70.005 6.084123
70.010 6.03005
70.015 6.173685
70.020 6.074873
70.025 6.134656
70.030 5.992939
70.035 6.215404
70.040 6.20534
70.045 6.311817
70.050 6.55934
70.055 6.536207
70.060 6.568575
70.065 6.968354
70.070 6.617776
70.075 6.232834
70.080 6.264114
70.085 6.44973
70.090 6.32855
70.095 6.053764
70.100 6.0912
70.105 6.568841
70.110 7.143831
70.115 6.637166
70.120 6.179793
70.125 6.404612
70.130 6.475966
70.135 6.387547
70.140 6.264088
70.145 6.343065
70.150 7.127569
70.155 7.395862
70.160 7.161539
70.165 7.06532
70.170 6.84224
70.175 6.391232
70.180 6.018373
70.185 5.867283
70.190 5.812662
70.195 5.978937
70.200 6.231068
70.205 6.407859
70.210 6.442494
70.215 6.410347
70.220 6.381958
70.225 6.250332
70.230 6.065323
70.235 5.884979
70.240 6.017548
70.245 6.232699
70.250 6.692232
70.255 7.061819
70.260 7.391666
70.265 7.752352
70.270 7.520635
70.275 7.5171
70.280 7.110536
70.285 6.282535
70.290 5.721809
70.295 5.916802
70.300 5.654467
70.305 5.687832
70.310 5.830102
70.315 6.019975
70.320 6.695196
70.325 6.931275
70.330 6.754104
70.335 6.982451
70.340 6.909252
70.345 6.578146
70.350 6.557334
70.355 6.4634
70.360 6.210625
70.365 6.24173
70.370 6.294385
70.375 6.514495
70.380 7.020289
70.385 7.271893
70.390 7.089673
70.395 7.424734
70.400 7.19322
70.405 6.814506
70.410 6.483502
70.415 6.409853
70.420 6.495286
70.425 6.356728
70.430 6.149732
70.435 6.417721
70.440 6.54106
70.445 6.336587
70.450 6.41405
70.455 6.544027
70.460 6.73096
70.465 7.122314
70.470 7.306478
70.475 7.51806
70.480 7.72336
70.485 7.162184
70.490 7.089586
70.495 6.76926
70.500 6.717884
70.505 6.819855
70.510 6.785675
70.515 7.212262
70.520 7.249839
70.525 7.317199
70.530 7.39418
70.535 7.464256
70.540 7.504323
70.545 7.345913
70.550 6.908206
70.555 6.972116
70.560 7.011202
70.565 6.838779
70.570 6.507318
70.575 6.444316
70.580 6.721559
70.585 6.774518
70.590 6.726892
70.595 6.6608
70.600 6.611534
70.605 6.567092
70.610 6.572334
70.615 6.923852
70.620 6.965699
70.625 6.951767
70.630 6.656899
70.635 6.716216
70.640 6.804916
70.645 6.711079
70.650 6.835186
70.655 7.140715
70.660 7.392623
70.665 7.64954
70.670 7.429468
70.675 7.463109
70.680 7.284441
70.685 6.578038
70.690 6.416408
70.695 6.268072
70.700 6.272914
70.705 6.22637
70.710 6.067863
70.715 6.244918
70.720 6.730755
70.725 6.618138
70.730 6.644623
70.735 6.904369
70.740 7.187712
70.745 7.399701
70.750 7.474955
70.755 7.371625
70.760 7.458743
70.765 7.656039
70.770 7.78948
70.775 7.756712
70.780 7.601983
70.785 7.047196
70.790 6.712539
70.795 6.659315
70.800 6.176775
70.805 5.829079
70.810 5.63241
70.815 5.949664
70.820 6.281839
70.825 6.230818
70.830 6.348936
70.835 6.507412
70.840 6.449871
70.845 6.488252
70.850 6.381126
70.855 6.540746
70.860 6.507515
70.865 6.399151
70.870 6.529366
70.875 6.669804
70.880 6.401669
70.885 6.031209
70.890 6.127201
70.895 6.427804
70.900 6.364116
70.905 6.05091
70.910 6.062613
70.915 6.336306
70.920 6.756405
70.925 6.492529
70.930 6.350655
70.935 6.148504
70.940 6.112512
70.945 6.156267
70.950 6.024405
70.955 6.259176
70.960 6.110828
70.965 6.020158
70.970 6.011434
70.975 5.889349
70.980 5.843665
70.985 5.751744
70.990 5.36912
70.995 5.612554
71.000 6.077364
71.005 6.487526
71.010 7.043561
71.015 7.127235
71.020 7.208476
71.025 7.215283
71.030 7.454476
71.035 7.369192
71.040 7.210231
71.045 6.883076
71.050 6.821183
71.055 6.870387
71.060 6.678289
71.065 6.672482
71.070 6.73979
71.075 6.91028
71.080 7.140478
71.085 7.120483
71.090 6.914555
71.095 6.852969
71.100 6.966589
71.105 6.957245
71.110 6.841176
71.115 6.491926
71.120 6.616825
71.125 6.940674
71.130 7.06668
71.135 6.856768
71.140 6.72594
71.145 6.789804
71.150 6.768493
71.155 6.611686
71.160 6.622238
71.165 6.320238
71.170 6.313547
71.175 6.122445
71.180 6.160239
71.185 6.210659
71.190 6.448516
71.195 6.286526
71.200 6.075367
71.205 6.4037
71.210 6.495166
71.215 6.268213
71.220 6.190927
71.225 5.98264
71.230 6.174426
71.235 6.117882
71.240 5.952312
71.245 6.134529
71.250 6.127075
71.255 6.13218
71.260 5.890239
71.265 5.982612
71.270 6.143138
71.275 5.919914
71.280 6.043712
71.285 6.073815
71.290 6.329666
71.295 6.600669
71.300 6.92803
71.305 7.125953
71.310 7.461078
71.315 7.335772
71.320 7.788932
71.325 7.436477
71.330 7.029119
71.335 6.876665
71.340 6.582025
71.345 6.482074
71.350 6.42838
71.355 6.043804
71.360 6.023728
71.365 6.424666
71.370 6.214129
71.375 6.101194
71.380 5.932157
71.385 5.687677
71.390 5.865917
71.395 6.157988
71.400 6.273273
71.405 6.347391
71.410 6.836305
71.415 7.051406
71.420 7.405855
71.425 7.230085
71.430 6.854608
71.435 6.634612
71.440 6.580482
71.445 6.481348
71.450 6.773714
71.455 6.773851
71.460 6.934494
71.465 7.274398
71.470 7.505279
71.475 7.760384
71.480 7.414703
71.485 7.006185
71.490 6.946493
71.495 6.6457
71.500 6.647597
71.505 6.579049
71.510 6.034546
71.515 6.060775
71.520 6.280064
71.525 6.175026
71.530 6.329246
71.535 5.993237
71.540 6.16658
71.545 6.603626
71.550 6.427626
71.555 6.483175
71.560 6.590506
71.565 6.385655
71.570 6.278783
71.575 6.258769
71.580 6.238984
71.585 6.028018
71.590 6.156973
71.595 6.122134
71.600 6.364014
71.605 6.708336
71.610 6.389289
71.615 6.512798
71.620 6.374672
71.625 6.233745
71.630 6.461464
71.635 6.363317
71.640 6.381994
71.645 6.363247
71.650 6.407161
71.655 6.774305
71.660 6.714076
71.665 6.861166
71.670 6.861639
71.675 6.830324
71.680 6.939728
71.685 6.836276
71.690 7.071523
71.695 7.24916
71.700 7.169414
71.705 7.182356
71.710 7.443277
71.715 7.353397
71.720 7.28002
71.725 6.949471
71.730 6.84097
71.735 6.683196
71.740 6.255038
71.745 6.364839
71.750 6.426603
71.755 6.64286
71.760 6.732014
71.765 6.823777
71.770 7.08885
71.775 7.193353
71.780 7.143273
71.785 7.138264
71.790 6.683521
71.795 6.579958
71.800 6.362507
71.805 6.607266
71.810 6.714397
71.815 6.735471
71.820 6.917691
71.825 7.002606
71.830 6.883065
71.835 6.94717
71.840 6.700294
71.845 6.737763
71.850 6.891055
71.855 7.098795
71.860 7.108011
71.865 7.249705
71.870 7.170306
71.875 7.477587
71.880 7.080785
71.885 6.698209
71.890 6.513078
71.895 6.446786
71.900 6.236994
71.905 6.212336
71.910 6.186682
71.915 6.491671
71.920 6.578752
71.925 6.801528
71.930 6.920557
71.935 7.163052
71.940 7.059271
71.945 7.021054
71.950 7.044517
71.955 7.175413
71.960 7.358023
71.965 7.179033
71.970 6.881344
71.975 6.487144
71.980 6.450112
71.985 6.214175
71.990 6.048175
71.995 5.689549
72.000 5.970121
72.005 6.093334
72.010 6.612473
72.015 6.831311
72.020 6.748745
72.025 6.775272
72.030 7.205798
72.035 7.205938
72.040 7.257252
72.045 7.010604
72.050 6.756225
72.055 6.883392
72.060 6.825178
72.065 6.542251
72.070 6.530896
72.075 6.539217
72.080 6.26256
72.085 6.750318
72.090 6.826718
72.095 6.674505
72.100 6.433717
72.105 6.404626
72.110 6.514342
72.115 6.641109
72.120 6.023745
72.125 5.93166
72.130 5.935827
72.135 5.855009
72.140 5.80128
72.145 5.634495
72.150 5.589677
72.155 5.958716
72.160 6.163256
72.165 6.211931
72.170 6.283144
72.175 6.467813
72.180 6.568867
72.185 6.742123
72.190 6.654447
72.195 6.607967
72.200 6.662795
72.205 6.675732
72.210 6.355846
72.215 6.680579
72.220 6.655137
72.225 6.430325
72.230 6.367337
72.235 6.20517
72.240 6.11482
72.245 6.049372
72.250 5.843145
72.255 6.105015
72.260 6.270428
72.265 6.284016
72.270 6.434517
72.275 6.461623
72.280 6.794581
72.285 6.480944
72.290 6.317979
72.295 6.23252
72.300 6.258718
72.305 6.316198
72.310 6.064198
72.315 5.925186
72.320 5.768864
72.325 5.938155
72.330 5.893569
72.335 5.50322
72.340 5.65388
72.345 5.906577
72.350 5.735955
72.355 5.668015
72.360 5.337905
72.365 5.566195
72.370 5.917921
72.375 6.172903
72.380 6.284295
72.385 6.937174
72.390 6.946167
72.395 7.174104
72.400 6.927179
72.405 6.470524
72.410 6.249149
72.415 5.795025
72.420 5.384533
72.425 5.44471
72.430 5.659978
72.435 5.801341
72.440 5.828373
72.445 5.667337
72.450 6.158832
72.455 6.677975
72.460 6.817447
72.465 6.758415
72.470 7.047407
72.475 6.847378
72.480 6.839628
72.485 6.116992
72.490 5.451592
72.495 5.518125
72.500 5.536607
72.505 5.818239
72.510 6.350814
72.515 6.653841
72.520 7.167873
72.525 7.346375
72.530 7.243741
72.535 7.617652
72.540 7.523751
72.545 7.154873
72.550 6.808538
72.555 6.622744
72.560 6.610764
72.565 6.121287
72.570 5.322305
72.575 5.146669
72.580 5.31294
72.585 5.777139
72.590 5.796347
72.595 6.053938
72.600 6.401676
72.605 6.837991
72.610 6.908884
72.615 6.598152
72.620 6.418008
72.625 6.634599
72.630 6.575662
72.635 6.533069
72.640 6.434677
72.645 6.474823
72.650 6.728054
72.655 6.386111
72.660 6.074574
72.665 5.933803
72.670 6.142943
72.675 6.272467
72.680 6.379665
72.685 6.13688
72.690 6.574407
72.695 6.661736
72.700 6.506428
72.705 6.324479
72.710 6.275934
72.715 6.242944
72.720 6.218718
72.725 6.288773
72.730 6.500167
72.735 6.642564
72.740 6.616325
72.745 6.44157
72.750 6.266238
72.755 6.255177
72.760 6.106003
72.765 5.900061
72.770 5.901227
72.775 5.820514
72.780 6.059628
72.785 6.531091
72.790 6.552192
72.795 6.554538
72.800 6.322007
72.805 6.264638
72.810 6.542562
72.815 6.25541
72.820 6.243002
72.825 6.317282
72.830 6.554033
72.835 6.775962
72.840 6.727862
72.845 6.555539
72.850 6.562174
72.855 6.084025
72.860 6.008294
72.865 6.006053
72.870 6.229613
72.875 6.191134
72.880 6.22168
72.885 6.272975
72.890 6.454047
72.895 6.321446
72.900 6.150258
72.905 6.172016
72.910 6.277214
72.915 6.585623
72.920 6.435056
72.925 6.379987
72.930 6.154598
72.935 6.063642
72.940 5.842879
72.945 5.607348
72.950 5.438337
72.955 5.528577
72.960 5.87164
72.965 6.030421
72.970 6.033817
72.975 6.219976
72.980 6.049047
72.985 5.926922
72.990 5.782612
72.995 5.549552
73.000 5.713418
