!@!!GADDS PLOTSO FILE: Chi integration type
!@!!Title/SampleName: map-177
!@!!Comment: ?
!@!!User: Bruker Instrument Administrator
!@!!Site: University of Illinois Chicago
!@!!Frame: map-177_01_000.gfrm
!@!!Wavelengths    1.54184   1.54056   1.54439
!@!!Frame angles: 2Theta: 63.000 Omega: 50.000 Phi: 0.000 Chi: 90.000
!@!!Integration range: 2Theta: 53.000 to 73.000  Gamma: -105.000 to -75.000
!@!!Integration method: bin normalized
!@!N
!@!SS
!@!M
!@!L 0.0 0.0 0.0 0.0
!@!XDegrees
!@!YCounts
53.000 5.815389
53.005 5.826608
53.010 5.597786
53.015 5.812826
53.020 5.827713
53.025 5.891484
53.030 5.934799
53.035 6.102833
53.040 6.213009
53.045 6.042169
53.050 5.528089
53.055 5.53293
53.060 5.757
53.065 5.747714
53.070 5.576834
53.075 5.860305
53.080 6.249004
53.085 6.472095
53.090 6.354066
53.095 5.936368
53.100 5.807525
53.105 5.854765
53.110 5.622821
53.115 5.372113
53.120 5.458588
53.125 5.429374
53.130 5.783413
53.135 5.637883
53.140 5.292395
53.145 5.611646
53.150 6.06158
53.155 6.358742
53.160 6.348474
53.165 5.988932
53.170 6.079084
53.175 5.974827
53.180 5.85952
53.185 5.317368
53.190 4.88861
53.195 4.781548
53.200 4.951546
53.205 5.211564
53.210 5.250489
53.215 5.700874
53.220 6.294057
53.225 6.690579
53.230 6.824268
53.235 6.95588
53.240 6.642867
53.245 6.417385
53.250 5.947748
53.255 5.821954
53.260 5.705271
53.265 5.714713
53.270 5.808533
53.275 5.952643
53.280 5.732699
53.285 5.681266
53.290 5.380828
53.295 5.664704
53.300 5.57511
53.305 5.534042
53.310 5.591927
53.315 5.836645
53.320 5.802368
53.325 5.813947
53.330 5.50233
53.335 5.698657
53.340 5.988639
53.345 6.078803
53.350 6.20906
53.355 6.498728
53.360 6.728514
53.365 6.709926
53.370 6.828533
53.375 6.814832
53.380 6.924228
53.385 6.860751
53.390 6.677875
53.395 6.690501
53.400 6.764536
53.405 6.448593
53.410 6.099399
53.415 5.78371
53.420 5.649458
53.425 5.417218
53.430 5.456458
53.435 5.289776
53.440 5.263818
53.445 5.460044
53.450 5.482707
53.455 5.593117
53.460 5.749457
53.465 5.748321
53.470 5.790552
53.475 5.703119
53.480 6.057211
53.485 6.363978
53.490 6.30232
53.495 6.051446
53.500 5.808953
53.505 6.013164
53.510 6.230271
53.515 6.440519
53.520 6.499492
53.525 6.412803
53.530 6.661555
53.535 6.642697
53.540 6.837044
53.545 6.488631
53.550 5.995283
53.555 5.97235
53.560 6.26976
53.565 6.024441
53.570 5.955125
53.575 5.839165
53.580 6.09827
53.585 6.219204
53.590 6.107592
53.595 6.0394
53.600 6.097924
53.605 6.329689
53.610 6.414841
53.615 6.173345
53.620 5.839839
53.625 5.797042
53.630 5.385417
53.635 5.243945
53.640 5.072718
53.645 5.263141
53.650 5.34285
53.655 5.195991
53.660 5.109087
53.665 5.659936
53.670 5.795741
53.675 5.765563
53.680 5.880171
53.685 5.980155
53.690 6.225667
53.695 6.396126
53.700 6.537189
53.705 6.709767
53.710 6.653104
53.715 6.601282
53.720 7.01986
53.725 7.327224
53.730 7.4622
53.735 7.009841
53.740 6.838815
53.745 7.212248
53.750 6.91195
53.755 6.423678
53.760 5.98068
53.765 5.801
53.770 5.651685
53.775 5.637957
53.780 5.423687
53.785 5.574223
53.790 5.566868
53.795 5.521845
53.800 5.767434
53.805 5.852637
53.810 5.849975
53.815 5.588457
53.820 5.771492
53.825 6.476887
53.830 6.471365
53.835 6.368929
53.840 6.526443
53.845 6.636606
53.850 6.661751
53.855 6.498022
53.860 6.006779
53.865 6.149632
53.870 6.461903
53.875 6.214683
53.880 5.96239
53.885 5.859276
53.890 6.143439
53.895 6.361663
53.900 6.304293
53.905 6.178715
53.910 6.193174
53.915 6.378915
53.920 6.288579
53.925 5.96604
53.930 5.839128
53.935 6.156408
53.940 6.291368
53.945 6.284223
53.950 6.142047
53.955 6.409048
53.960 6.531451
53.965 6.051352
53.970 5.82305
53.975 5.820517
53.980 5.752656
53.985 5.986949
53.990 5.977132
53.995 6.471943
54.000 6.351427
54.005 6.072523
54.010 6.367523
54.015 6.59668
54.020 6.392011
54.025 5.931681
54.030 6.00084
54.035 6.411353
54.040 6.264509
54.045 5.99095
54.050 5.653253
54.055 5.726353
54.060 5.868579
54.065 5.72008
54.070 5.559772
54.075 5.803334
54.080 6.194967
54.085 6.369502
54.090 6.180356
54.095 6.277359
54.100 6.382532
54.105 6.302789
54.110 5.990238
54.115 5.515376
54.120 5.282554
54.125 5.480889
54.130 5.10191
54.135 5.248199
54.140 5.473289
54.145 5.42034
54.150 5.417204
54.155 5.768563
54.160 5.927516
54.165 6.014575
54.170 5.956814
54.175 6.497253
54.180 6.986928
54.185 7.208399
54.190 7.152486
54.195 7.002876
54.200 7.389805
54.205 7.125113
54.210 6.535418
54.215 6.438997
54.220 6.452696
54.225 6.499001
54.230 6.748446
54.235 6.596095
54.240 6.844975
54.245 6.894
54.250 6.941505
54.255 6.827085
54.260 6.605666
54.265 6.193014
54.270 6.202909
54.275 6.062523
54.280 5.806447
54.285 5.641858
54.290 5.617163
54.295 5.605248
54.300 5.663929
54.305 5.504004
54.310 5.880484
54.315 6.421064
54.320 6.454845
54.325 6.621778
54.330 6.576942
54.335 6.738023
54.340 7.035682
54.345 6.743892
54.350 6.589049
54.355 7.035528
54.360 6.963047
54.365 7.016298
54.370 6.650331
54.375 6.212344
54.380 6.436517
54.385 6.514982
54.390 6.127656
54.395 5.952143
54.400 6.180634
54.405 6.292494
54.410 6.171617
54.415 5.68522
54.420 5.638355
54.425 5.936986
54.430 6.050736
54.435 6.050286
54.440 6.292816
54.445 6.388601
54.450 6.251285
54.455 5.849901
54.460 5.671614
54.465 5.612177
54.470 5.402661
54.475 5.179026
54.480 5.149566
54.485 5.320282
54.490 5.245307
54.495 5.496406
54.500 5.633677
54.505 5.684084
54.510 5.86597
54.515 5.820307
54.520 6.013747
54.525 6.30002
54.530 5.920183
54.535 5.721333
54.540 5.729087
54.545 5.615231
54.550 5.83323
54.555 5.984912
54.560 5.777021
54.565 5.899315
54.570 6.118994
54.575 6.461079
54.580 6.52163
54.585 6.253143
54.590 5.980067
54.595 6.031156
54.600 6.068834
54.605 5.856285
54.610 5.643167
54.615 6.035272
54.620 6.480982
54.625 6.507475
54.630 6.793312
54.635 6.859213
54.640 7.265042
54.645 7.224083
54.650 7.185718
54.655 7.124845
54.660 7.203956
54.665 6.973733
54.670 6.919528
54.675 6.643199
54.680 6.617983
54.685 6.651394
54.690 6.728993
54.695 6.620567
54.700 6.568491
54.705 6.153224
54.710 5.769424
54.715 5.767277
54.720 5.480543
54.725 5.479159
54.730 5.580937
54.735 5.774162
54.740 6.112087
54.745 6.352512
54.750 5.875856
54.755 5.987629
54.760 5.842124
54.765 5.750913
54.770 6.2436
54.775 6.339066
54.780 6.452769
54.785 6.662367
54.790 6.58827
54.795 6.421273
54.800 6.29096
54.805 5.729611
54.810 5.724992
54.815 5.588579
54.820 5.482246
54.825 5.843049
54.830 6.078685
54.835 6.278568
54.840 6.495891
54.845 6.891661
54.850 7.321712
54.855 7.375031
54.860 7.024152
54.865 7.114824
54.870 7.224747
54.875 7.168436
54.880 6.908321
54.885 6.486739
54.890 6.47299
54.895 6.705493
54.900 6.622112
54.905 6.475953
54.910 6.575238
54.915 6.755304
54.920 6.9001
54.925 6.709301
54.930 6.548458
54.935 6.300173
54.940 5.970123
54.945 6.04038
54.950 6.281322
54.955 6.615495
54.960 6.702349
54.965 6.759461
54.970 6.886162
54.975 7.392001
54.980 7.404076
54.985 7.581589
54.990 7.390332
54.995 7.225878
55.000 7.146316
55.005 7.379866
55.010 7.142325
55.015 7.003808
55.020 6.608531
55.025 6.608018
55.030 7.20663
55.035 7.283719
55.040 6.597796
55.045 6.306406
55.050 6.372624
55.055 6.626922
55.060 6.44472
55.065 5.986706
55.070 6.09841
55.075 6.472473
55.080 6.522012
55.085 6.217111
55.090 6.121917
55.095 6.514036
55.100 6.718759
55.105 6.748426
55.110 6.554605
55.115 6.399253
55.120 6.398187
55.125 6.66707
55.130 6.430718
55.135 6.184257
55.140 5.895373
55.145 5.764873
55.150 6.089787
55.155 6.214996
55.160 6.011378
55.165 5.965243
55.170 6.333569
55.175 6.791931
55.180 6.89088
55.185 6.555386
55.190 6.301763
55.195 6.532686
55.200 6.452998
55.205 6.111426
55.210 6.526111
55.215 6.812793
55.220 7.244643
55.225 7.257963
55.230 6.954054
55.235 6.976561
55.240 7.037535
55.245 6.877525
55.250 7.022192
55.255 7.255786
55.260 7.351622
55.265 7.914454
55.270 8.053766
55.275 7.571735
55.280 7.43454
55.285 7.239047
55.290 6.81574
55.295 6.674792
55.300 6.51245
55.305 6.411709
55.310 6.708704
55.315 6.796478
55.320 7.017202
55.325 7.312237
55.330 7.5363
55.335 7.862198
55.340 7.909029
55.345 7.895609
55.350 7.823035
55.355 7.517658
55.360 7.613256
55.365 7.583795
55.370 7.228554
55.375 7.445907
55.380 7.328026
55.385 7.108306
55.390 7.697337
55.395 7.383304
55.400 6.993718
55.405 7.024329
55.410 7.005354
55.415 6.773484
55.420 6.27291
55.425 5.713696
55.430 5.775921
55.435 6.160907
55.440 5.818619
55.445 6.255491
55.450 6.471959
55.455 6.719999
55.460 6.739527
55.465 6.491129
55.470 6.157618
55.475 6.2937
55.480 6.002223
55.485 6.262225
55.490 6.023295
55.495 6.010534
55.500 6.20576
55.505 6.946011
55.510 6.974128
55.515 7.015237
55.520 6.916536
55.525 7.387386
55.530 7.464134
55.535 7.311838
55.540 6.818744
55.545 6.916051
55.550 6.804912
55.555 6.780124
55.560 6.532526
55.565 6.688206
55.570 6.71354
55.575 6.868919
55.580 6.77708
55.585 6.726577
55.590 6.692369
55.595 6.522212
55.600 6.390822
55.605 6.155516
55.610 5.85933
55.615 6.018085
55.620 6.152009
55.625 6.304648
55.630 6.238448
55.635 6.442797
55.640 6.767229
55.645 6.841873
55.650 6.687869
55.655 6.888867
55.660 6.983538
55.665 7.413042
55.670 7.308792
55.675 7.15043
55.680 7.043536
55.685 7.009655
55.690 6.958885
55.695 7.124021
55.700 7.009257
55.705 7.039421
55.710 6.862242
55.715 6.980044
55.720 7.627282
55.725 7.699445
55.730 7.477169
55.735 7.375721
55.740 6.969605
55.745 6.952251
55.750 6.64018
55.755 5.97717
55.760 5.86155
55.765 5.821261
55.770 5.652138
55.775 5.770567
55.780 5.885965
55.785 5.928184
55.790 5.793558
55.795 5.933105
55.800 6.203374
55.805 6.836412
55.810 7.583604
55.815 7.737689
55.820 8.306884
55.825 8.318445
55.830 8.179434
55.835 8.262109
55.840 7.826943
55.845 7.410614
55.850 7.179536
55.855 7.034433
55.860 7.262588
55.865 7.370618
55.870 7.002996
55.875 7.368067
55.880 7.584253
55.885 7.504251
55.890 7.103373
55.895 6.697407
55.900 6.561535
55.905 6.586479
55.910 6.590207
55.915 6.626003
55.920 6.875601
55.925 6.988259
55.930 7.088251
55.935 7.456181
55.940 7.696149
55.945 7.847346
55.950 7.898853
55.955 7.358689
55.960 7.208894
55.965 7.305391
55.970 7.146049
55.975 6.592024
55.980 6.332019
55.985 6.268072
55.990 6.536853
55.995 6.852102
56.000 6.552459
56.005 6.504621
56.010 6.555561
56.015 7.071875
56.020 7.125419
56.025 7.229151
56.030 7.274527
56.035 7.450968
56.040 7.505857
56.045 7.356761
56.050 7.232255
56.055 7.251627
56.060 6.895487
56.065 6.886582
56.070 7.049387
56.075 7.075313
56.080 6.973418
56.085 6.912383
56.090 6.997743
56.095 7.422383
56.100 7.281107
56.105 6.758565
56.110 6.818197
56.115 6.75995
56.120 6.645733
56.125 6.66447
56.130 6.565621
56.135 6.882863
56.140 7.045496
56.145 7.019814
56.150 6.900053
56.155 6.646588
56.160 6.362048
56.165 6.176579
56.170 6.094938
56.175 6.181778
56.180 6.192778
56.185 6.23826
56.190 6.13932
56.195 6.109957
56.200 6.288199
56.205 6.184838
56.210 6.113534
56.215 6.469101
56.220 6.6617
56.225 6.93963
56.230 7.021436
56.235 6.947758
56.240 6.950283
56.245 7.185767
56.250 7.033171
56.255 6.719044
56.260 6.970448
56.265 7.068128
56.270 7.111892
56.275 7.373812
56.280 7.214869
56.285 7.477451
56.290 7.767748
56.295 7.584888
56.300 7.36759
56.305 7.217645
56.310 7.138568
56.315 7.201275
56.320 6.934109
56.325 6.849639
56.330 7.094168
56.335 7.518153
56.340 7.405465
56.345 7.066504
56.350 6.922334
56.355 7.08061
56.360 7.066224
56.365 6.896116
56.370 7.05408
56.375 7.093194
56.380 7.447786
56.385 7.494102
56.390 7.788865
56.395 7.772717
56.400 7.467668
56.405 7.110943
56.410 7.302547
56.415 7.403117
56.420 7.520953
56.425 7.012796
56.430 7.22046
56.435 7.643217
56.440 7.768206
56.445 7.782619
56.450 7.607941
56.455 7.71998
56.460 8.255928
56.465 8.426413
56.470 8.377064
56.475 8.342373
56.480 8.263343
56.485 8.455747
56.490 8.558434
56.495 8.746501
56.500 8.595071
56.505 8.547979
56.510 8.816469
56.515 8.712105
56.520 8.834099
56.525 8.529762
56.530 7.760228
56.535 7.717885
56.540 7.510936
56.545 7.284189
56.550 7.156106
56.555 7.409687
56.560 7.417006
56.565 7.477735
56.570 7.400947
56.575 7.483795
56.580 7.591053
56.585 7.772837
56.590 7.717979
56.595 7.696749
56.600 8.033939
56.605 8.312014
56.610 8.162354
56.615 8.150306
56.620 7.818902
56.625 7.421847
56.630 7.592472
56.635 7.312793
56.640 7.12233
56.645 7.039472
56.650 6.843721
56.655 6.916996
56.660 7.208711
56.665 7.387018
56.670 7.312749
56.675 7.413812
56.680 7.478653
56.685 7.668221
56.690 7.67925
56.695 7.22129
56.700 7.235273
56.705 7.395213
56.710 7.500404
56.715 7.770556
56.720 8.006144
56.725 8.03511
56.730 8.22939
56.735 7.771888
56.740 7.544938
56.745 7.302089
56.750 7.111539
56.755 6.464365
56.760 6.603025
56.765 7.071785
56.770 7.700152
56.775 7.835599
56.780 7.932666
56.785 8.184215
56.790 8.600088
56.795 8.432932
56.800 8.17202
56.805 8.23666
56.810 8.242628
56.815 8.117124
56.820 7.981762
56.825 7.685524
56.830 7.262506
56.835 6.875294
56.840 6.460468
56.845 6.489363
56.850 6.535502
56.855 6.616702
56.860 6.797988
56.865 7.200951
56.870 7.479358
56.875 7.811687
56.880 7.519048
56.885 7.515222
56.890 7.340468
56.895 7.466985
56.900 7.150436
56.905 6.906341
56.910 7.137426
56.915 7.487539
56.920 7.354621
56.925 7.371632
56.930 7.348252
56.935 7.360212
56.940 7.18075
56.945 6.640797
56.950 6.176079
56.955 6.172425
56.960 6.175435
56.965 6.208982
56.970 6.319501
56.975 6.364398
56.980 6.493419
56.985 6.91536
56.990 6.814232
56.995 6.698511
57.000 6.916243
57.005 7.229207
57.010 7.276671
57.015 7.427339
57.020 7.27058
57.025 7.684088
57.030 7.562198
57.035 7.406317
57.040 6.987467
57.045 6.660024
57.050 6.542956
57.055 6.511952
57.060 6.533388
57.065 6.478295
57.070 6.3677
57.075 6.884446
57.080 6.980943
57.085 7.261676
57.090 7.055711
57.095 7.204692
57.100 7.403839
57.105 7.007916
57.110 6.77083
57.115 7.175121
57.120 7.236463
57.125 7.511394
57.130 7.266403
57.135 7.273655
57.140 7.127244
57.145 6.9954
57.150 6.716629
57.155 6.311363
57.160 5.95529
57.165 5.804574
57.170 5.914663
57.175 6.23272
57.180 6.361469
57.185 6.317148
57.190 6.340451
57.195 6.570507
57.200 6.472052
57.205 6.575838
57.210 6.571827
57.215 6.959876
57.220 7.417935
57.225 7.966205
57.230 8.088474
57.235 8.477556
57.240 8.414763
57.245 8.162267
57.250 7.634881
57.255 7.824505
57.260 7.739001
57.265 7.732233
57.270 7.499393
57.275 7.417416
57.280 7.501686
57.285 7.95073
57.290 7.444856
57.295 7.205378
57.300 7.0366
57.305 7.08527
57.310 6.858993
57.315 7.031058
57.320 6.903723
57.325 7.123307
57.330 7.382163
57.335 7.577542
57.340 7.48091
57.345 7.755881
57.350 7.982083
57.355 7.927299
57.360 7.881698
57.365 7.896006
57.370 7.670313
57.375 8.101997
57.380 8.154943
57.385 7.707613
57.390 7.686543
57.395 7.788329
57.400 7.895401
57.405 7.910963
57.410 7.60769
57.415 7.392249
57.420 7.600228
57.425 7.703454
57.430 7.486101
57.435 7.647617
57.440 7.686511
57.445 7.911278
57.450 8.221372
57.455 8.00369
57.460 7.38535
57.465 7.403258
57.470 7.292475
57.475 7.431637
57.480 7.572223
57.485 7.438554
57.490 7.39393
57.495 7.742225
57.500 7.600747
57.505 7.301214
57.510 6.903857
57.515 6.602602
57.520 6.722115
57.525 6.917505
57.530 6.732722
57.535 6.847351
57.540 6.798982
57.545 6.947478
57.550 7.033104
57.555 6.81468
57.560 6.569146
57.565 6.626375
57.570 6.657286
57.575 6.507967
57.580 6.727047
57.585 6.848108
57.590 6.669453
57.595 7.043184
57.600 6.953506
57.605 6.999969
57.610 7.336374
57.615 7.169597
57.620 6.943403
57.625 6.856715
57.630 6.979075
57.635 7.251708
57.640 7.095717
57.645 7.162612
57.650 7.165396
57.655 7.616819
57.660 8.048339
57.665 7.83161
57.670 7.436074
57.675 7.230399
57.680 7.202226
57.685 7.454368
57.690 7.403301
57.695 7.308527
57.700 7.442877
57.705 7.84716
57.710 7.784126
57.715 7.699499
57.720 7.391804
57.725 6.942165
57.730 7.05598
57.735 6.6463
57.740 6.073385
57.745 6.183083
57.750 5.937478
57.755 5.878787
57.760 6.226743
57.765 6.312789
57.770 6.259773
57.775 6.486144
57.780 6.761408
57.785 6.902324
57.790 6.777189
57.795 6.161864
57.800 6.038382
57.805 6.478766
57.810 6.331008
57.815 6.179454
57.820 6.743412
57.825 6.993372
57.830 7.063418
57.835 6.527565
57.840 6.60381
57.845 7.10763
57.850 6.990992
57.855 6.439918
57.860 6.220157
57.865 6.403204
57.870 7.131679
57.875 7.027285
57.880 6.806778
57.885 6.636265
57.890 7.243113
57.895 7.400651
57.900 7.457247
57.905 7.256614
57.910 7.326747
57.915 7.334804
57.920 7.382265
57.925 6.976935
57.930 7.090901
57.935 7.197363
57.940 7.221088
57.945 7.58932
57.950 7.978647
57.955 7.834864
57.960 7.819205
57.965 7.922291
57.970 7.783651
57.975 7.746015
57.980 7.017084
57.985 6.510442
57.990 6.952737
57.995 7.058632
58.000 7.286747
58.005 7.241391
58.010 7.228012
58.015 7.629364
58.020 7.884698
58.025 7.950282
58.030 8.03266
58.035 7.799549
58.040 7.465859
58.045 7.485624
58.050 7.462285
58.055 7.417201
58.060 7.302506
58.065 7.291075
58.070 7.253191
58.075 7.630429
58.080 7.452013
58.085 7.56411
58.090 7.312078
58.095 7.196475
58.100 7.228313
58.105 7.65575
58.110 7.443997
58.115 7.350254
58.120 7.427729
58.125 7.565326
58.130 7.298064
58.135 6.846635
58.140 6.8558
58.145 6.909497
58.150 7.250099
58.155 6.778438
58.160 6.216718
58.165 6.318141
58.170 6.153293
58.175 5.835895
58.180 5.751143
58.185 5.639545
58.190 6.057374
58.195 6.363108
58.200 6.439338
58.205 6.760359
58.210 6.835233
58.215 7.289248
58.220 7.422723
58.225 7.324757
58.230 7.352721
58.235 7.191538
58.240 7.242021
58.245 7.35514
58.250 6.932145
58.255 6.627915
58.260 6.745337
58.265 6.964374
58.270 6.872807
58.275 6.827898
58.280 6.838286
58.285 7.027679
58.290 6.982068
58.295 6.74445
58.300 6.845791
58.305 7.175751
58.310 7.155489
58.315 7.259537
58.320 7.288004
58.325 7.694214
58.330 7.926013
58.335 7.805923
58.340 7.649313
58.345 7.51447
58.350 7.371814
58.355 7.222772
58.360 6.887143
58.365 6.633818
58.370 6.30022
58.375 6.07954
58.380 6.15959
58.385 5.688371
58.390 5.649663
58.395 5.649641
58.400 5.862681
58.405 6.50826
58.410 6.904251
58.415 7.007753
58.420 7.782021
58.425 8.207661
58.430 8.139266
58.435 8.09441
58.440 7.76629
58.445 7.52935
58.450 7.514697
58.455 7.071556
58.460 6.708705
58.465 6.814839
58.470 6.78157
58.475 6.79575
58.480 6.875421
58.485 6.988066
58.490 7.760083
58.495 8.172343
58.500 8.498659
58.505 8.403724
58.510 8.197402
58.515 7.927967
58.520 7.6508
58.525 7.210271
58.530 7.181291
58.535 7.251602
58.540 7.550196
58.545 7.610013
58.550 7.569302
58.555 7.581196
58.560 7.361935
58.565 7.304584
58.570 7.387375
58.575 7.41298
58.580 7.472745
58.585 7.351451
58.590 7.534894
58.595 7.803407
58.600 7.889166
58.605 7.832664
58.610 7.628131
58.615 7.491937
58.620 7.734649
58.625 7.732525
58.630 7.350036
58.635 6.946413
58.640 6.990876
58.645 7.007989
58.650 7.304914
58.655 7.274811
58.660 6.919344
58.665 7.076016
58.670 7.304875
58.675 7.18868
58.680 7.052551
58.685 7.04429
58.690 6.927131
58.695 7.258683
58.700 6.82278
58.705 6.09993
58.710 6.139093
58.715 6.121222
58.720 5.840768
58.725 6.269964
58.730 5.954894
58.735 6.157886
58.740 6.525355
58.745 6.809789
58.750 6.704952
58.755 6.464241
58.760 6.187196
58.765 6.248604
58.770 6.170441
58.775 6.404752
58.780 6.339402
58.785 6.8862
58.790 7.130608
58.795 7.15307
58.800 7.306745
58.805 7.332637
58.810 7.090325
58.815 6.811815
58.820 6.536343
58.825 6.452648
58.830 6.569739
58.835 6.581015
58.840 6.628925
58.845 6.859841
58.850 7.094074
58.855 7.499629
58.860 7.883919
58.865 7.881146
58.870 7.98639
58.875 8.066873
58.880 7.520895
58.885 7.538185
58.890 7.756269
58.895 7.291807
58.900 7.043125
58.905 6.943839
58.910 7.102893
58.915 7.405107
58.920 6.981543
58.925 6.592509
58.930 6.758075
58.935 6.600789
58.940 6.48022
58.945 6.462748
58.950 6.189036
58.955 6.249636
58.960 6.114697
58.965 6.160074
58.970 6.527799
58.975 7.07407
58.980 6.887117
58.985 6.950693
58.990 7.076013
58.995 7.290686
59.000 7.180384
59.005 6.894301
59.010 6.851057
59.015 6.992992
59.020 7.013438
59.025 6.838036
59.030 6.625833
59.035 6.87665
59.040 6.84597
59.045 6.3153
59.050 6.217155
59.055 6.347294
59.060 6.619718
59.065 6.806374
59.070 6.413524
59.075 6.508538
59.080 6.921492
59.085 7.376773
59.090 7.511243
59.095 7.490993
59.100 7.688799
59.105 8.254718
59.110 8.633815
59.115 8.565719
59.120 8.457808
59.125 8.694165
59.130 8.987708
59.135 9.362676
59.140 9.324133
59.145 9.028667
59.150 8.808666
59.155 8.428872
59.160 8.26385
59.165 7.83554
59.170 7.118369
59.175 6.912587
59.180 7.102339
59.185 7.425635
59.190 7.738601
59.195 7.731973
59.200 7.575118
59.205 7.819277
59.210 7.730749
59.215 7.372671
59.220 7.615866
59.225 7.578765
59.230 7.675603
59.235 8.200255
59.240 8.495616
59.245 8.840993
59.250 9.492471
59.255 9.049267
59.260 8.992125
59.265 8.697649
59.270 8.152802
59.275 8.174263
59.280 8.134609
59.285 7.430488
59.290 7.59396
59.295 7.984717
59.300 7.972787
59.305 7.952998
59.310 7.55168
59.315 7.4037
59.320 7.584871
59.325 7.180808
59.330 6.892491
59.335 7.250023
59.340 7.560708
59.345 7.622375
59.350 7.467248
59.355 7.328784
59.360 7.616058
59.365 7.280851
59.370 6.781452
59.375 6.847756
59.380 6.622637
59.385 6.870817
59.390 7.098537
59.395 7.253671
59.400 7.469018
59.405 7.674378
59.410 7.400096
59.415 7.299513
59.420 7.341227
59.425 7.265337
59.430 7.036108
59.435 6.880406
59.440 6.991441
59.445 7.462908
59.450 7.656414
59.455 7.393147
59.460 7.388253
59.465 7.483078
59.470 7.907253
59.475 7.897302
59.480 7.863442
59.485 7.977433
59.490 8.227469
59.495 8.228395
59.500 8.390308
59.505 8.192172
59.510 8.004766
59.515 8.375055
59.520 8.676391
59.525 8.377904
59.530 8.085383
59.535 7.853975
59.540 7.76969
59.545 8.002767
59.550 7.502748
59.555 7.54065
59.560 7.755752
59.565 7.877377
59.570 7.533454
59.575 7.591628
59.580 7.173807
59.585 6.944481
59.590 6.626262
59.595 6.40778
59.600 5.955227
59.605 6.325356
59.610 6.200949
59.615 6.559211
59.620 6.498161
59.625 6.571642
59.630 6.82413
59.635 7.045665
59.640 6.941822
59.645 7.271539
59.650 7.268283
59.655 7.711134
59.660 7.946791
59.665 8.121709
59.670 8.212908
59.675 8.072442
59.680 7.7018
59.685 7.605865
59.690 7.345346
59.695 7.260077
59.700 7.783676
59.705 7.890693
59.710 7.944641
59.715 8.004184
59.720 8.159408
59.725 8.071655
59.730 8.161738
59.735 7.770149
59.740 8.02853
59.745 8.310339
59.750 8.599619
59.755 8.637387
59.760 8.513313
59.765 8.143572
59.770 8.612991
59.775 8.871674
59.780 8.709564
59.785 8.196381
59.790 7.827189
59.795 7.997475
59.800 8.025905
59.805 7.473211
59.810 7.228172
59.815 7.424432
59.820 7.53589
59.825 7.735487
59.830 7.365457
59.835 7.491544
59.840 7.632075
59.845 7.700468
59.850 7.297223
59.855 7.096899
59.860 6.888161
59.865 7.069427
59.870 6.604422
59.875 6.45924
59.880 6.083614
59.885 6.234209
59.890 6.685574
59.895 6.875809
59.900 7.032936
59.905 7.091909
59.910 7.011246
59.915 7.333457
59.920 7.58736
59.925 7.727355
59.930 7.942403
59.935 8.00256
59.940 8.418945
59.945 8.622254
59.950 8.842697
59.955 8.829639
59.960 8.588698
59.965 8.470152
59.970 8.034061
59.975 7.843984
59.980 7.990982
59.985 7.610825
59.990 7.367064
59.995 7.069003
60.000 6.966062
60.005 7.275324
60.010 7.291951
60.015 6.983078
60.020 6.83971
60.025 7.272604
60.030 7.466931
60.035 7.456574
60.040 7.200014
60.045 7.189154
60.050 7.487756
60.055 7.330039
60.060 7.113578
60.065 7.345731
60.070 7.671216
60.075 7.710092
60.080 7.460701
60.085 7.272216
60.090 7.533519
60.095 7.975942
60.100 7.884006
60.105 8.183903
60.110 8.264584
60.115 7.983421
60.120 7.928728
60.125 8.06215
60.130 7.464228
60.135 7.335808
60.140 6.629245
60.145 6.607837
60.150 6.993459
60.155 7.007941
60.160 7.075473
60.165 7.38511
60.170 7.528409
60.175 7.856579
60.180 8.153806
60.185 8.127291
60.190 8.279647
60.195 7.804912
60.200 7.646738
60.205 7.388281
60.210 7.228532
60.215 7.376331
60.220 7.363433
60.225 7.42342
60.230 7.628002
60.235 7.780771
60.240 8.100522
60.245 8.138192
60.250 8.213741
60.255 8.4623
60.260 8.141183
60.265 7.980245
60.270 7.753618
60.275 7.73287
60.280 7.723505
60.285 7.317447
60.290 6.868521
60.295 6.965199
60.300 6.876007
60.305 7.037206
60.310 6.958859
60.315 7.028312
60.320 7.224939
60.325 7.550134
60.330 7.334957
60.335 7.339303
60.340 7.155363
60.345 7.195599
60.350 7.196331
60.355 7.327478
60.360 7.699961
60.365 7.97632
60.370 7.894019
60.375 7.787778
60.380 7.781897
60.385 7.974315
60.390 8.035322
60.395 8.124002
60.400 8.250379
60.405 8.13392
60.410 8.534587
60.415 8.613899
60.420 8.180215
60.425 7.802587
60.430 7.942186
60.435 7.69341
60.440 7.730385
60.445 7.532665
60.450 7.36202
60.455 7.57544
60.460 7.504272
60.465 6.899213
60.470 7.189082
60.475 7.818182
60.480 7.804239
60.485 7.44805
60.490 7.147898
60.495 7.251631
60.500 7.197961
60.505 7.504184
60.510 7.184022
60.515 7.204642
60.520 7.085965
60.525 7.111042
60.530 7.154012
60.535 7.112631
60.540 6.625795
60.545 6.412225
60.550 6.57269
60.555 7.280261
60.560 7.595735
60.565 7.718171
60.570 7.745446
60.575 7.88283
60.580 8.068215
60.585 7.822443
60.590 7.463309
60.595 7.237616
60.600 6.932579
60.605 6.976288
60.610 7.024668
60.615 7.245671
60.620 7.622488
60.625 7.557763
60.630 7.811912
60.635 8.150567
60.640 8.026503
60.645 8.228007
60.650 8.152927
60.655 7.826518
60.660 7.99426
60.665 7.896298
60.670 7.881134
60.675 7.788652
60.680 7.29976
60.685 7.063907
60.690 6.946607
60.695 6.952344
60.700 6.732309
60.705 6.558282
60.710 6.523952
60.715 6.820804
60.720 7.092023
60.725 7.080684
60.730 6.860881
60.735 7.036929
60.740 7.217753
60.745 6.91877
60.750 6.577342
60.755 6.576196
60.760 6.794056
60.765 7.098288
60.770 7.191082
60.775 7.224551
60.780 7.521205
60.785 7.669806
60.790 7.417181
60.795 7.624693
60.800 7.511591
60.805 7.625149
60.810 8.204784
60.815 8.460996
60.820 8.655911
60.825 8.781805
60.830 8.381191
60.835 8.116335
60.840 7.617406
60.845 7.123311
60.850 6.999418
60.855 6.956097
60.860 6.934574
60.865 7.357329
60.870 7.203911
60.875 7.295196
60.880 7.517026
60.885 7.227332
60.890 6.909986
60.895 6.804119
60.900 6.565226
60.905 6.808537
60.910 6.88407
60.915 6.515217
60.920 6.983854
60.925 7.816442
60.930 8.291382
60.935 8.476538
60.940 8.751876
60.945 8.845692
60.950 8.939317
60.955 8.454946
60.960 8.256505
60.965 7.979851
60.970 7.694625
60.975 7.536551
60.980 7.706802
60.985 7.8116
60.990 8.13809
60.995 7.756398
61.000 7.953905
61.005 8.060171
61.010 8.015002
61.015 7.60412
61.020 7.527434
61.025 7.27175
61.030 7.28113
61.035 6.940993
61.040 6.764036
61.045 6.513372
61.050 6.684514
61.055 6.466137
61.060 6.878571
61.065 6.844786
61.070 6.935563
61.075 7.296445
61.080 8.03526
61.085 8.307946
61.090 8.297599
61.095 8.232012
61.100 8.397127
61.105 8.684761
61.110 8.62496
61.115 8.555088
61.120 8.449188
61.125 8.508172
61.130 8.489491
61.135 8.409625
61.140 8.320094
61.145 8.061869
61.150 7.624422
61.155 7.837731
61.160 7.920386
61.165 7.282566
61.170 6.860126
61.175 6.585993
61.180 6.502675
61.185 6.357753
61.190 6.126796
61.195 6.306018
61.200 6.878605
61.205 7.798694
61.210 8.538768
61.215 8.825458
61.220 9.159669
61.225 9.144066
61.230 8.99129
61.235 8.467881
61.240 7.847055
61.245 7.575195
61.250 7.361137
61.255 7.254099
61.260 7.413718
61.265 7.561694
61.270 8.158006
61.275 8.546319
61.280 8.159328
61.285 8.287154
61.290 8.318411
61.295 8.357808
61.300 8.275426
61.305 7.761483
61.310 7.76762
61.315 7.907663
61.320 7.689647
61.325 7.426396
61.330 6.987242
61.335 6.746085
61.340 6.531799
61.345 6.22476
61.350 6.550832
61.355 6.849542
61.360 7.084407
61.365 7.843594
61.370 8.320254
61.375 8.817865
61.380 9.156583
61.385 9.160098
61.390 9.098318
61.395 9.594333
61.400 9.121326
61.405 9.101842
61.410 8.923524
61.415 8.333074
61.420 7.854458
61.425 7.854721
61.430 7.639463
61.435 7.847147
61.440 8.052528
61.445 8.018823
61.450 8.397155
61.455 8.455911
61.460 8.250695
61.465 8.109403
61.470 7.595076
61.475 7.032717
61.480 7.19957
61.485 7.181965
61.490 7.056562
61.495 6.830891
61.500 6.625943
61.505 6.759312
61.510 6.763622
61.515 6.519258
61.520 6.420072
61.525 6.510632
61.530 6.583418
61.535 6.787529
61.540 6.764425
61.545 6.931934
61.550 7.266284
61.555 7.527083
61.560 7.842185
61.565 7.870186
61.570 7.947948
61.575 8.410918
61.580 8.790975
61.585 8.509837
61.590 8.207826
61.595 8.171438
61.600 8.32026
61.605 8.335253
61.610 8.321088
61.615 8.184328
61.620 8.237613
61.625 8.328968
61.630 8.156034
61.635 8.034467
61.640 7.819275
61.645 7.49132
61.650 7.340953
61.655 7.572906
61.660 7.459162
61.665 7.293538
61.670 7.483438
61.675 7.70658
61.680 8.029979
61.685 7.98545
61.690 7.595895
61.695 7.838345
61.700 8.212682
61.705 8.200141
61.710 7.96245
61.715 7.366346
61.720 7.134174
61.725 7.106665
61.730 6.717887
61.735 6.147442
61.740 5.987835
61.745 5.917139
61.750 6.015317
61.755 6.324934
61.760 6.689153
61.765 7.107564
61.770 7.066724
61.775 6.805562
61.780 6.865492
61.785 7.464647
61.790 7.720961
61.795 7.842538
61.800 7.482778
61.805 7.696442
61.810 7.761785
61.815 7.872328
61.820 7.645487
61.825 7.334915
61.830 7.1994
61.835 7.891278
61.840 8.163215
61.845 8.336473
61.850 8.528407
61.855 8.964961
61.860 9.270853
61.865 9.45741
61.870 9.124165
61.875 8.909149
61.880 9.241238
61.885 8.946161
61.890 8.968574
61.895 8.897239
61.900 8.596784
61.905 8.307145
61.910 8.01723
61.915 7.783266
61.920 7.56124
61.925 7.341278
61.930 6.899933
61.935 7.046985
61.940 7.290386
61.945 7.620059
61.950 7.452453
61.955 7.437812
61.960 7.457014
61.965 7.808765
61.970 7.866578
61.975 8.060587
61.980 8.055103
61.985 7.954714
61.990 7.745243
61.995 7.713197
62.000 7.729128
62.005 7.736114
62.010 7.448134
62.015 7.59185
62.020 8.019783
62.025 8.414542
62.030 8.625271
62.035 8.580955
62.040 8.279599
62.045 8.257591
62.050 8.163229
62.055 7.861527
62.060 7.890887
62.065 7.477887
62.070 7.792558
62.075 8.10019
62.080 8.429778
62.085 8.651158
62.090 8.615139
62.095 8.267356
62.100 8.34175
62.105 7.851564
62.110 7.738439
62.115 7.59303
62.120 7.350239
62.125 7.327172
62.130 7.70645
62.135 7.84609
62.140 7.970978
62.145 7.887558
62.150 7.68938
62.155 7.787924
62.160 8.223383
62.165 8.026663
62.170 8.161759
62.175 8.600822
62.180 8.872599
62.185 8.784729
62.190 8.760478
62.195 8.183485
62.200 8.253589
62.205 8.295859
62.210 7.952905
62.215 7.797341
62.220 8.058904
62.225 8.306464
62.230 8.835678
62.235 9.18049
62.240 8.990741
62.245 8.80118
62.250 8.888914
62.255 9.210612
62.260 9.262817
62.265 8.938938
62.270 8.294664
62.275 8.024416
62.280 8.040464
62.285 7.890045
62.290 7.35998
62.295 7.230788
62.300 7.462432
62.305 7.698317
62.310 8.004937
62.315 8.135956
62.320 8.367586
62.325 8.31962
62.330 8.40237
62.335 8.325588
62.340 8.18407
62.345 8.181121
62.350 8.341078
62.355 8.193369
62.360 8.206877
62.365 8.193598
62.370 8.062693
62.375 7.997773
62.380 8.042
62.385 7.659549
62.390 7.505735
62.395 7.342504
62.400 7.160377
62.405 7.328633
62.410 7.475546
62.415 7.341221
62.420 7.691901
62.425 7.978743
62.430 8.078881
62.435 8.171638
62.440 7.926105
62.445 8.215443
62.450 8.205082
62.455 7.695282
62.460 7.538814
62.465 7.344307
62.470 7.350254
62.475 7.370462
62.480 7.434953
62.485 7.596937
62.490 7.901819
62.495 8.283388
62.500 8.371454
62.505 8.047145
62.510 8.130532
62.515 8.067692
62.520 7.773331
62.525 7.621858
62.530 7.760429
62.535 8.275319
62.540 8.688745
62.545 8.35116
62.550 7.617517
62.555 7.971525
62.560 8.159097
62.565 7.644241
62.570 7.434578
62.575 7.45489
62.580 7.622658
62.585 8.06576
62.590 7.741138
62.595 7.352848
62.600 7.391088
62.605 7.089358
62.610 7.038296
62.615 7.32652
62.620 7.496997
62.625 7.704002
62.630 8.053431
62.635 8.634913
62.640 8.870522
62.645 8.858482
62.650 8.934616
62.655 9.210191
62.660 9.748875
62.665 9.815696
62.670 10.225742
62.675 10.138325
62.680 9.900868
62.685 9.796383
62.690 10.213457
62.695 10.382275
62.700 10.494761
62.705 9.647064
62.710 10.082861
62.715 10.212746
62.720 10.491896
62.725 10.211852
62.730 10.119823
62.735 10.08989
62.740 10.51568
62.745 10.33886
62.750 10.537535
62.755 10.146912
62.760 9.869448
62.765 9.771303
62.770 9.818544
62.775 9.701604
62.780 9.542353
62.785 9.251167
62.790 9.336946
62.795 9.213057
62.800 8.86025
62.805 8.833986
62.810 8.736417
62.815 8.703743
62.820 8.797767
62.825 8.703362
62.830 9.31036
62.835 9.661688
62.840 9.757848
62.845 9.988496
62.850 10.258272
62.855 10.290269
62.860 10.17548
62.865 9.917569
62.870 9.61112
62.875 9.441013
62.880 9.049224
62.885 8.577824
62.890 8.686157
62.895 9.009456
62.900 8.966582
62.905 9.134166
62.910 9.028887
62.915 8.825292
62.920 9.099955
62.925 8.874681
62.930 8.57112
62.935 8.311698
62.940 7.94796
62.945 8.022275
62.950 8.507629
62.955 8.9545
62.960 9.388311
62.965 9.357843
62.970 9.320179
62.975 9.498568
62.980 9.348382
62.985 8.982121
62.990 8.316333
62.995 7.653202
63.000 8.038703
63.005 8.076471
63.010 7.730359
63.015 7.607996
63.020 7.599762
63.025 7.964252
63.030 8.092588
63.035 7.641475
63.040 7.77707
63.045 8.184586
63.050 8.324559
63.055 8.507518
63.060 8.083466
63.065 7.969061
63.070 8.023584
63.075 7.792229
63.080 8.126965
63.085 8.002317
63.090 8.035493
63.095 8.116758
63.100 8.491092
63.105 8.482662
63.110 8.253598
63.115 8.222357
63.120 8.491366
63.125 8.570223
63.130 8.989173
63.135 8.898774
63.140 8.836365
63.145 9.265451
63.150 8.799421
63.155 8.691052
63.160 8.632929
63.165 8.637702
63.170 8.749452
63.175 8.514885
63.180 7.948312
63.185 7.902735
63.190 7.861172
63.195 7.893809
63.200 7.764242
63.205 7.564723
63.210 8.023645
63.215 8.08967
63.220 8.068185
63.225 8.005047
63.230 7.868944
63.235 7.793458
63.240 7.617384
63.245 7.300198
63.250 7.955027
63.255 8.181617
63.260 8.192455
63.265 8.351491
63.270 8.285876
63.275 8.733397
63.280 8.92865
63.285 8.670728
63.290 8.662848
63.295 8.616085
63.300 8.704031
63.305 8.748821
63.310 8.739635
63.315 8.508532
63.320 8.486225
63.325 8.415306
63.330 8.34935
63.335 8.014269
63.340 7.929905
63.345 7.547694
63.350 7.931378
63.355 7.68287
63.360 7.638896
63.365 7.666615
63.370 7.588755
63.375 7.425221
63.380 7.634944
63.385 7.286922
63.390 7.553237
63.395 7.867362
63.400 8.162812
63.405 8.489209
63.410 8.783486
63.415 8.795771
63.420 8.674015
63.425 8.54282
63.430 8.736199
63.435 8.254968
63.440 8.15501
63.445 8.183334
63.450 8.278379
63.455 8.440857
63.460 8.413959
63.465 7.83649
63.470 8.137528
63.475 8.012017
63.480 7.866019
63.485 7.833227
63.490 8.029161
63.495 7.919856
63.500 8.134168
63.505 8.326797
63.510 8.38509
63.515 8.311218
63.520 7.864357
63.525 7.639327
63.530 7.504844
63.535 7.569813
63.540 7.477469
63.545 7.278189
63.550 7.348066
63.555 7.395365
63.560 7.410023
63.565 7.780276
63.570 7.896257
63.575 7.920161
63.580 8.122499
63.585 7.883547
63.590 8.004217
63.595 8.065247
63.600 8.093176
63.605 7.469663
63.610 7.590985
63.615 7.574139
63.620 8.121693
63.625 8.080672
63.630 8.533215
63.635 8.821886
63.640 9.155616
63.645 9.092712
63.650 9.204505
63.655 8.916342
63.660 9.127263
63.665 8.463286
63.670 8.112566
63.675 8.034907
63.680 7.629958
63.685 7.317554
63.690 7.421344
63.695 7.797274
63.700 7.963186
63.705 7.976382
63.710 7.843164
63.715 7.925621
63.720 8.364568
63.725 8.103796
63.730 7.878655
63.735 7.679347
63.740 7.452821
63.745 7.807972
63.750 8.047729
63.755 7.941242
63.760 8.121819
63.765 8.082805
63.770 7.993715
63.775 7.85932
63.780 7.662628
63.785 7.495499
63.790 7.265496
63.795 7.15378
63.800 7.05864
63.805 7.071044
63.810 7.650146
63.815 8.037547
63.820 8.268934
63.825 8.502465
63.830 8.535625
63.835 8.913099
63.840 8.935478
63.845 8.713381
63.850 8.514909
63.855 8.34103
63.860 8.204962
63.865 8.052599
63.870 7.676901
63.875 7.639398
63.880 7.4091
63.885 7.151139
63.890 7.310855
63.895 7.154994
63.900 7.356214
63.905 7.641087
63.910 7.724154
63.915 7.849293
63.920 7.938538
63.925 7.409503
63.930 7.305874
63.935 7.284215
63.940 6.912578
63.945 6.83108
63.950 6.701252
63.955 6.720417
63.960 6.910803
63.965 7.124218
63.970 7.320479
63.975 8.076145
63.980 8.653068
63.985 9.218359
63.990 9.235003
63.995 9.402001
64.000 9.301843
64.005 8.953998
64.010 8.889925
64.015 8.608099
64.020 8.497763
64.025 8.47113
64.030 8.351891
64.035 8.220574
64.040 8.296921
64.045 7.94117
64.050 7.792085
64.055 7.404451
64.060 7.457309
64.065 7.958523
64.070 8.067539
64.075 7.871917
64.080 7.762672
64.085 7.985412
64.090 8.304093
64.095 8.469738
64.100 8.249302
64.105 8.810849
64.110 9.011923
64.115 9.167973
64.120 9.290106
64.125 9.146402
64.130 8.538617
64.135 8.365682
64.140 7.941718
64.145 7.893712
64.150 7.849092
64.155 7.727415
64.160 7.772915
64.165 8.005599
64.170 8.103259
64.175 8.051755
64.180 8.22892
64.185 8.191883
64.190 7.960124
64.195 7.857832
64.200 8.248746
64.205 8.343721
64.210 8.301816
64.215 7.981193
64.220 7.968205
64.225 8.36037
64.230 8.822182
64.235 8.429419
64.240 8.162259
64.245 8.481378
64.250 8.29554
64.255 7.928448
64.260 7.611054
64.265 7.580532
64.270 7.963614
64.275 8.193495
64.280 8.227817
64.285 8.680263
64.290 9.221461
64.295 9.195986
64.300 8.851039
64.305 8.598411
64.310 8.206645
64.315 7.913826
64.320 7.68272
64.325 7.354517
64.330 7.159916
64.335 7.663379
64.340 7.872667
64.345 7.972878
64.350 7.807485
64.355 7.96933
64.360 8.193379
64.365 8.511895
64.370 8.264491
64.375 8.043276
64.380 7.968614
64.385 7.982557
64.390 7.551898
64.395 7.189225
64.400 7.486913
64.405 7.759041
64.410 8.242669
64.415 8.588779
64.420 8.732837
64.425 9.102866
64.430 9.280079
64.435 8.956082
64.440 8.912624
64.445 8.839405
64.450 8.987151
64.455 8.941294
64.460 8.978723
64.465 9.058867
64.470 8.598456
64.475 8.132087
64.480 7.892163
64.485 7.966959
64.490 8.393884
64.495 8.330274
64.500 8.325247
64.505 8.898014
64.510 9.202577
64.515 9.341813
64.520 9.347838
64.525 9.235432
64.530 9.364327
64.535 9.777061
64.540 9.541574
64.545 9.258592
64.550 9.183834
64.555 9.245525
64.560 9.182405
64.565 9.24543
64.570 9.106938
64.575 9.424303
64.580 9.670846
64.585 9.827004
64.590 9.684655
64.595 10.089346
64.600 10.197695
64.605 10.050195
64.610 9.939577
64.615 10.093246
64.620 9.816543
64.625 9.481524
64.630 9.125671
64.635 9.13309
64.640 9.334
64.645 9.456628
64.650 9.381477
64.655 9.617589
64.660 10.104185
64.665 10.016286
64.670 9.943735
64.675 9.947639
64.680 10.042131
64.685 10.535337
64.690 10.014088
64.695 10.199079
64.700 10.422417
64.705 10.490966
64.710 10.38848
64.715 10.520146
64.720 10.072276
64.725 10.220453
64.730 10.097578
64.735 10.401816
64.740 11.127627
64.745 11.591957
64.750 11.739532
64.755 12.255422
64.760 12.887863
64.765 13.297128
64.770 13.143539
64.775 13.23749
64.780 13.518483
64.785 13.118572
64.790 12.988338
64.795 12.357878
64.800 11.87709
64.805 12.138818
64.810 11.915644
64.815 12.092743
64.820 13.581783
64.825 14.064276
64.830 14.558746
64.835 14.89754
64.840 15.047285
64.845 15.263765
64.850 15.150826
64.855 14.268382
64.860 14.981071
64.865 15.518783
64.870 16.003382
64.875 15.870347
64.880 15.542224
64.885 16.065069
64.890 16.067099
64.895 15.572397
64.900 15.577916
64.905 15.814479
64.910 15.888728
64.915 16.250105
64.920 15.675775
64.925 15.763618
64.930 15.515075
64.935 15.381671
64.940 14.929554
64.945 15.099229
64.950 15.544217
64.955 16.353161
64.960 16.229311
64.965 16.12693
64.970 16.104166
64.975 16.189482
64.980 16.291246
64.985 16.007011
64.990 16.070621
64.995 16.572683
65.000 16.895599
65.005 16.965662
65.010 17.185886
65.015 17.556463
65.020 17.831043
65.025 17.415094
65.030 17.499689
65.035 17.522207
65.040 17.599546
65.045 17.458565
65.050 16.984154
65.055 16.766796
65.060 16.537251
65.065 16.354706
65.070 15.982628
65.075 15.698256
65.080 15.566045
65.085 15.798316
65.090 15.549783
65.095 15.865758
65.100 15.91146
65.105 15.939392
65.110 15.822937
65.115 15.403394
65.120 14.874604
65.125 14.445668
65.130 13.767711
65.135 14.249592
65.140 14.704702
65.145 14.661744
65.150 14.661165
65.155 15.042933
65.160 15.296507
65.165 15.344009
65.170 14.997361
65.175 14.799709
65.180 15.024218
65.185 14.940206
65.190 14.548833
65.195 14.830948
65.200 15.044347
65.205 14.79199
65.210 14.845983
65.215 14.555034
65.220 14.227407
65.225 14.007632
65.230 13.147948
65.235 12.543706
65.240 12.266155
65.245 12.269641
65.250 12.606844
65.255 12.518686
65.260 12.61391
65.265 12.217808
65.270 12.077024
65.275 11.720005
65.280 11.196325
65.285 11.352608
65.290 11.492029
65.295 11.537857
65.300 11.681536
65.305 11.49976
65.310 11.708105
65.315 11.923397
65.320 11.271351
65.325 11.038424
65.330 10.929639
65.335 10.991364
65.340 10.982456
65.345 10.494565
65.350 9.921471
65.355 9.830621
65.360 9.76622
65.365 10.008507
65.370 10.03787
65.375 10.169778
65.380 10.162005
65.385 10.333754
65.390 10.644821
65.395 11.052776
65.400 11.20899
65.405 11.734235
65.410 12.210579
65.415 12.300256
65.420 11.840388
65.425 11.862623
65.430 11.588063
65.435 11.013031
65.440 10.04098
65.445 9.215871
65.450 9.255902
65.455 9.433526
65.460 9.311333
65.465 8.905807
65.470 8.692571
65.475 8.971761
65.480 8.599524
65.485 8.366219
65.490 8.520845
65.495 8.277246
65.500 8.582801
65.505 8.643413
65.510 8.903136
65.515 9.150271
65.520 9.15348
65.525 9.153082
65.530 9.286159
65.535 9.396461
65.540 9.424615
65.545 9.17971
65.550 9.380109
65.555 9.345777
65.560 9.255468
65.565 8.834858
65.570 8.66409
65.575 8.703021
65.580 8.769577
65.585 8.668769
65.590 9.009487
65.595 9.032205
65.600 9.294391
65.605 9.408581
65.610 9.26104
65.615 9.360937
65.620 9.532434
65.625 9.009392
65.630 8.673584
65.635 8.226624
65.640 7.745775
65.645 7.574046
65.650 7.487546
65.655 7.460823
65.660 7.580344
65.665 7.976668
65.670 8.371954
65.675 8.727661
65.680 8.94809
65.685 8.254385
65.690 7.972839
65.695 7.92197
65.700 7.851219
65.705 7.835671
65.710 7.766789
65.715 7.557368
65.720 7.785558
65.725 7.759242
65.730 7.548112
65.735 7.120637
65.740 7.423232
65.745 7.889548
65.750 7.825556
65.755 7.689125
65.760 7.754218
65.765 7.937545
65.770 8.117866
65.775 7.825045
65.780 7.509384
65.785 7.500282
65.790 7.787827
65.795 7.953057
65.800 7.75258
65.805 7.498125
65.810 6.88154
65.815 6.307906
65.820 6.451462
65.825 6.584903
65.830 6.688664
65.835 6.660036
65.840 6.898448
65.845 7.569265
65.850 8.049872
65.855 8.149149
65.860 7.6921
65.865 8.142715
65.870 8.442102
65.875 8.431721
65.880 8.441095
65.885 8.220061
65.890 8.050863
65.895 8.330363
65.900 8.230342
65.905 8.404387
65.910 8.373548
65.915 8.052182
65.920 8.212823
65.925 8.212675
65.930 8.054237
65.935 8.025283
65.940 7.939435
65.945 7.81862
65.950 8.133167
65.955 8.255461
65.960 8.297646
65.965 8.571735
65.970 8.475374
65.975 8.269788
65.980 8.328689
65.985 8.850226
65.990 9.39599
65.995 9.517664
66.000 9.215215
66.005 8.871568
66.010 9.029784
66.015 9.22206
66.020 8.412324
66.025 7.747257
66.030 8.0721
66.035 7.942806
66.040 7.800478
66.045 7.898915
66.050 7.479818
66.055 7.663949
66.060 7.890455
66.065 7.871362
66.070 7.968728
66.075 8.324582
66.080 8.558264
66.085 8.691247
66.090 8.467931
66.095 8.302174
66.100 8.392949
66.105 8.827617
66.110 8.678408
66.115 8.621413
66.120 8.603189
66.125 8.771651
66.130 8.679009
66.135 8.005061
66.140 7.74347
66.145 7.826388
66.150 7.42301
66.155 7.209627
66.160 7.372879
66.165 7.785281
66.170 8.311702
66.175 8.165938
66.180 8.09539
66.185 8.402457
66.190 8.645531
66.195 8.341942
66.200 7.892004
66.205 7.808446
66.210 7.741486
66.215 7.941789
66.220 7.790845
66.225 8.016462
66.230 8.148151
66.235 8.207968
66.240 8.092262
66.245 8.322535
66.250 8.238493
66.255 8.270443
66.260 8.065657
66.265 8.21135
66.270 8.695495
66.275 9.019636
66.280 9.127032
66.285 9.112574
66.290 9.230211
66.295 9.279362
66.300 9.295496
66.305 8.921978
66.310 8.50684
66.315 7.994572
66.320 8.403946
66.325 8.75263
66.330 8.948374
66.335 9.017053
66.340 9.051082
66.345 9.45155
66.350 9.659915
66.355 9.087385
66.360 8.994771
66.365 8.671623
66.370 8.84129
66.375 8.916684
66.380 8.568194
66.385 8.517798
66.390 8.606119
66.395 8.887912
66.400 8.977864
66.405 8.761312
66.410 8.841161
66.415 9.42513
66.420 9.610174
66.425 9.334765
66.430 9.067044
66.435 8.722002
66.440 8.396608
66.445 8.208244
66.450 7.502803
66.455 7.343022
66.460 7.556319
66.465 7.859463
66.470 8.314855
66.475 8.30945
66.480 8.444451
66.485 8.901147
66.490 9.213295
66.495 9.101291
66.500 8.787302
66.505 8.779554
66.510 8.491228
66.515 8.172684
66.520 7.812361
66.525 7.304414
66.530 7.001185
66.535 6.761632
66.540 6.881649
66.545 7.440377
66.550 7.960186
66.555 8.244606
66.560 8.489064
66.565 8.769658
66.570 8.700891
66.575 8.200257
66.580 7.842566
66.585 7.569263
66.590 7.326714
66.595 7.129362
66.600 7.088607
66.605 7.430934
66.610 7.770742
66.615 7.97023
66.620 7.402617
66.625 7.12782
66.630 7.38605
66.635 6.782466
66.640 6.528493
66.645 6.400245
66.650 6.222705
66.655 6.963986
66.660 7.329952
66.665 7.276863
66.670 7.600481
66.675 7.784825
66.680 7.836031
66.685 8.136151
66.690 8.091999
66.695 8.1086
66.700 8.017164
66.705 7.90239
66.710 7.96585
66.715 7.807945
66.720 7.128915
66.725 6.871696
66.730 7.012739
66.735 7.554817
66.740 7.528901
66.745 7.493443
66.750 7.731486
66.755 7.936315
66.760 8.046221
66.765 8.136196
66.770 7.834315
66.775 7.962275
66.780 8.060961
66.785 8.331748
66.790 8.686398
66.795 8.391428
66.800 7.889083
66.805 8.008891
66.810 7.666574
66.815 7.27879
66.820 6.881504
66.825 6.487247
66.830 6.817536
66.835 7.121782
66.840 7.336754
66.845 7.408272
66.850 7.522077
66.855 7.802916
66.860 7.620542
66.865 7.306754
66.870 7.146022
66.875 7.10864
66.880 6.975297
66.885 7.073131
66.890 7.09933
66.895 7.742808
66.900 7.870095
66.905 8.031764
66.910 7.919285
66.915 7.693773
66.920 7.458208
66.925 7.504177
66.930 7.166059
66.935 7.113572
66.940 7.08075
66.945 7.333288
66.950 7.630939
66.955 7.973433
66.960 7.909474
66.965 7.976815
66.970 8.277691
66.975 7.893588
66.980 7.726236
66.985 8.084373
66.990 8.257705
66.995 8.33003
67.000 8.486638
67.005 8.184538
67.010 8.862885
67.015 9.020663
67.020 8.744949
67.025 8.608311
67.030 8.679458
67.035 8.27962
67.040 8.063681
67.045 7.28993
67.050 7.24292
67.055 7.127288
67.060 6.844628
67.065 6.549215
67.070 6.581739
67.075 7.148556
67.080 7.131381
67.085 6.976984
67.090 7.280547
67.095 7.42566
67.100 7.823546
67.105 8.047199
67.110 7.968368
67.115 8.574564
67.120 8.742711
67.125 8.508945
67.130 8.552305
67.135 8.082777
67.140 7.916152
67.145 7.809114
67.150 7.448814
67.155 7.501821
67.160 7.606509
67.165 7.588278
67.170 7.756803
67.175 7.491206
67.180 7.262057
67.185 7.060422
67.190 7.342632
67.195 7.2552
67.200 7.040324
67.205 7.444599
67.210 7.566702
67.215 7.816466
67.220 7.82163
67.225 7.495843
67.230 7.49578
67.235 7.666646
67.240 7.545953
67.245 7.548135
67.250 7.771192
67.255 8.042712
67.260 8.174351
67.265 8.287013
67.270 8.226248
67.275 7.989487
67.280 7.717057
67.285 7.772937
67.290 7.820404
67.295 7.517947
67.300 7.492861
67.305 7.317278
67.310 7.766557
67.315 8.106867
67.320 7.492678
67.325 7.444325
67.330 7.520859
67.335 7.907496
67.340 8.21474
67.345 8.294701
67.350 8.577642
67.355 8.858737
67.360 8.835426
67.365 8.943212
67.370 8.78538
67.375 8.758809
67.380 8.452284
67.385 8.255213
67.390 8.565952
67.395 8.512251
67.400 8.627058
67.405 8.42253
67.410 8.205463
67.415 8.211914
67.420 8.081822
67.425 7.794898
67.430 7.807095
67.435 7.454823
67.440 7.850943
67.445 8.202939
67.450 8.114831
67.455 8.160144
67.460 8.511811
67.465 8.336195
67.470 8.486732
67.475 8.165504
67.480 8.117182
67.485 8.792228
67.490 8.883511
67.495 8.833649
67.500 9.074196
67.505 9.014148
67.510 9.161839
67.515 9.26712
67.520 8.873024
67.525 8.700793
67.530 8.620766
67.535 8.400476
67.540 8.243526
67.545 8.180384
67.550 8.135918
67.555 8.299836
67.560 8.356244
67.565 8.730368
67.570 9.27195
67.575 9.412567
67.580 9.424108
67.585 9.258617
67.590 9.692278
67.595 9.779254
67.600 9.425078
67.605 8.806801
67.610 8.685677
67.615 8.667536
67.620 8.895836
67.625 8.305463
67.630 7.92541
67.635 8.194504
67.640 8.617902
67.645 8.617847
67.650 8.631673
67.655 8.577313
67.660 8.655919
67.665 8.602948
67.670 8.527963
67.675 8.569628
67.680 8.552678
67.685 8.458486
67.690 8.448237
67.695 8.399808
67.700 8.588649
67.705 8.452783
67.710 8.352566
67.715 8.316272
67.720 8.361491
67.725 7.669508
67.730 7.830939
67.735 7.711379
67.740 8.124949
67.745 8.117316
67.750 8.082866
67.755 8.196934
67.760 8.708868
67.765 8.723247
67.770 8.802235
67.775 8.630814
67.780 8.013576
67.785 7.961483
67.790 8.306959
67.795 8.624209
67.800 8.708428
67.805 8.391282
67.810 8.566188
67.815 9.123198
67.820 9.267433
67.825 9.227942
67.830 9.501246
67.835 9.720189
67.840 9.991394
67.845 9.688274
67.850 9.325945
67.855 8.925841
67.860 8.911864
67.865 8.394867
67.870 8.263638
67.875 8.389639
67.880 8.827223
67.885 9.133299
67.890 9.038925
67.895 9.011825
67.900 9.146854
67.905 9.279815
67.910 8.890559
67.915 8.153364
67.920 8.430561
67.925 8.823181
67.930 8.888802
67.935 9.245766
67.940 9.052504
67.945 9.430302
67.950 10.14068
67.955 9.796474
67.960 9.94208
67.965 9.723687
67.970 9.297669
67.975 9.568856
67.980 9.642658
67.985 9.527899
67.990 9.813832
67.995 9.54268
68.000 9.707172
68.005 9.380679
68.010 8.983559
68.015 8.926661
68.020 9.201298
68.025 9.065451
68.030 8.86202
68.035 8.486587
68.040 8.414753
68.045 8.292744
68.050 8.271867
68.055 8.099639
68.060 8.188552
68.065 8.332874
68.070 8.803232
68.075 9.348868
68.080 9.952546
68.085 9.891144
68.090 9.760753
68.095 9.86242
68.100 9.947653
68.105 9.868776
68.110 9.434653
68.115 9.185897
68.120 8.560792
68.125 8.522576
68.130 8.240189
68.135 8.276358
68.140 7.994612
68.145 7.968163
68.150 7.869881
68.155 8.5151
68.160 8.143731
68.165 7.844976
68.170 7.310402
68.175 7.271832
68.180 7.572089
68.185 7.580607
68.190 7.768852
68.195 8.223808
68.200 8.136336
68.205 8.541532
68.210 8.31255
68.215 7.540504
68.220 7.465727
68.225 6.943727
68.230 6.849254
68.235 7.124062
68.240 7.196897
68.245 7.769662
68.250 8.315111
68.255 8.527249
68.260 8.660941
68.265 8.79951
68.270 8.508838
68.275 8.214181
68.280 8.192204
68.285 8.163682
68.290 8.299686
68.295 8.067783
68.300 7.821487
68.305 7.728291
68.310 7.639565
68.315 7.225475
68.320 7.008552
68.325 6.468133
68.330 6.445974
68.335 6.492172
68.340 6.927169
68.345 7.272894
68.350 7.945164
68.355 8.230928
68.360 8.62431
68.365 8.910926
68.370 8.943679
68.375 8.573968
68.380 8.332988
68.385 8.360221
68.390 8.552685
68.395 8.748177
68.400 8.842721
68.405 8.819819
68.410 9.08849
68.415 8.848801
68.420 8.448107
68.425 8.192279
68.430 8.201329
68.435 7.910982
68.440 8.288371
68.445 8.107033
68.450 8.222985
68.455 7.99407
68.460 7.714097
68.465 7.26832
68.470 7.100487
68.475 6.916698
68.480 6.872893
68.485 6.838555
68.490 6.959113
68.495 7.11327
68.500 7.505302
68.505 7.501994
68.510 7.440413
68.515 7.512224
68.520 7.215683
68.525 7.149676
68.530 6.948206
68.535 6.704547
68.540 6.715914
68.545 6.357283
68.550 6.199778
68.555 6.609636
68.560 6.923142
68.565 7.104846
68.570 7.516681
68.575 7.670887
68.580 7.903276
68.585 8.574255
68.590 8.618267
68.595 8.353432
68.600 8.525131
68.605 8.338122
68.610 8.687365
68.615 9.074018
68.620 8.567196
68.625 8.355769
68.630 8.306145
68.635 8.155528
68.640 8.33821
68.645 8.175873
68.650 7.809218
68.655 8.014782
68.660 8.352781
68.665 8.299572
68.670 8.525448
68.675 8.328838
68.680 8.277508
68.685 8.410073
68.690 7.945794
68.695 7.937558
68.700 8.330966
68.705 8.140481
68.710 8.093578
68.715 8.306791
68.720 8.59468
68.725 8.947321
68.730 9.194017
68.735 9.277659
68.740 9.594887
68.745 9.570778
68.750 9.505582
68.755 9.802658
68.760 9.578603
68.765 9.218117
68.770 8.75988
68.775 8.717794
68.780 8.795359
68.785 8.539965
68.790 8.248669
68.795 8.461674
68.800 8.246983
68.805 8.048115
68.810 7.782034
68.815 7.744882
68.820 7.667226
68.825 8.084984
68.830 8.269744
68.835 8.675635
68.840 9.071097
68.845 9.270349
68.850 9.317708
68.855 9.510468
68.860 9.002379
68.865 8.762017
68.870 8.655805
68.875 8.397499
68.880 7.93007
68.885 7.931742
68.890 7.845655
68.895 7.81834
68.900 7.750792
68.905 7.875747
68.910 8.174781
68.915 8.245999
68.920 7.811919
68.925 8.003228
68.930 8.431601
68.935 8.802137
68.940 8.743327
68.945 9.05339
68.950 9.23446
68.955 9.423456
68.960 9.715302
68.965 10.099801
68.970 10.452983
68.975 10.595341
68.980 10.3891
68.985 10.649406
68.990 10.55282
68.995 10.136911
69.000 9.333253
69.005 8.868561
69.010 8.662585
69.015 8.713816
69.020 8.676635
69.025 9.030937
69.030 8.876953
69.035 8.626918
69.040 9.100679
69.045 9.100431
69.050 9.225919
69.055 9.442401
69.060 9.450999
69.065 9.834998
69.070 10.225769
69.075 10.23222
69.080 10.436958
69.085 10.614016
69.090 10.212421
69.095 9.716271
69.100 9.890018
69.105 9.541361
69.110 9.172925
69.115 9.346534
69.120 9.333221
69.125 9.356321
69.130 9.363435
69.135 9.106634
69.140 9.086741
69.145 9.061913
69.150 8.775125
69.155 8.658159
69.160 8.649744
69.165 8.903636
69.170 8.781609
69.175 8.913245
69.180 8.568844
69.185 8.43597
69.190 8.183598
69.195 8.049822
69.200 7.850164
69.205 7.836248
69.210 8.034667
69.215 8.442884
69.220 8.383454
69.225 8.909985
69.230 9.204217
69.235 9.402273
69.240 9.285513
69.245 8.730827
69.250 8.790351
69.255 9.296547
69.260 8.992581
69.265 8.647876
69.270 8.324271
69.275 8.587087
69.280 8.923605
69.285 8.69434
69.290 8.145144
69.295 8.088291
69.300 8.200508
69.305 7.986528
69.310 7.87851
69.315 7.347087
69.320 6.910452
69.325 6.588995
69.330 6.810735
69.335 7.025656
69.340 7.186541
69.345 6.747647
69.350 7.162362
69.355 7.908907
69.360 8.220229
69.365 8.17557
69.370 8.156388
69.375 8.332254
69.380 8.672452
69.385 8.508925
69.390 8.456621
69.395 8.09073
69.400 7.5895
69.405 7.522013
69.410 7.332805
69.415 7.014004
69.420 6.486114
69.425 6.295289
69.430 6.602723
69.435 6.863492
69.440 7.036546
69.445 7.192811
69.450 7.626606
69.455 7.709811
69.460 8.121518
69.465 8.578484
69.470 8.840507
69.475 9.08129
69.480 9.31857
69.485 9.066506
69.490 9.360486
69.495 9.34246
69.500 9.361135
69.505 9.273261
69.510 9.030124
69.515 8.778035
69.520 8.500488
69.525 7.936445
69.530 7.345703
69.535 7.12501
69.540 7.095224
69.545 6.954627
69.550 7.041055
69.555 7.395232
69.560 7.216094
69.565 6.987888
69.570 6.636301
69.575 6.479928
69.580 6.726828
69.585 6.791093
69.590 6.902547
69.595 7.382081
69.600 7.440989
69.605 7.957438
69.610 8.243515
69.615 8.540256
69.620 8.583014
69.625 8.609929
69.630 8.653618
69.635 8.8957
69.640 8.585182
69.645 8.539886
69.650 8.796752
69.655 9.270845
69.660 9.176266
69.665 9.174793
69.670 9.048553
69.675 8.766644
69.680 8.230985
69.685 7.714686
69.690 7.559422
69.695 7.48035
69.700 7.449645
69.705 7.32963
69.710 7.328843
69.715 7.335981
69.720 7.436141
69.725 7.8539
69.730 8.22987
69.735 8.047116
69.740 8.037115
69.745 8.350118
69.750 8.266848
69.755 7.895397
69.760 7.370681
69.765 7.319245
69.770 7.271189
69.775 7.63777
69.780 7.508071
69.785 7.51087
69.790 7.448455
69.795 7.338891
69.800 7.715992
69.805 7.874104
69.810 7.961689
69.815 8.269983
69.820 8.312565
69.825 8.458225
69.830 8.350601
69.835 8.047067
69.840 8.086122
69.845 7.847279
69.850 7.819004
69.855 8.031638
69.860 8.065371
69.865 8.201488
69.870 8.790286
69.875 9.331037
69.880 9.279818
69.885 9.1423
69.890 9.017023
69.895 8.967494
69.900 8.610267
69.905 8.058187
69.910 7.418626
69.915 7.491684
69.920 7.582324
69.925 7.693614
69.930 8.011773
69.935 8.393132
69.940 8.4983
69.945 8.898212
69.950 8.752669
69.955 8.420409
69.960 7.984781
69.965 7.535836
69.970 7.046024
69.975 6.840492
69.980 6.247826
69.985 6.089499
69.990 6.482865
69.995 7.123191
70.000 7.306912
70.005 7.214735
70.010 7.613673
70.015 7.68907
70.020 7.63584
70.025 7.690113
70.030 7.537604
70.035 8.042407
70.040 8.302164
70.045 8.095359
70.050 8.585855
70.055 8.987586
70.060 9.11067
70.065 8.728507
70.070 8.189264
70.075 7.985822
70.080 7.915799
70.085 7.864133
70.090 7.786717
70.095 7.791311
70.100 8.216484
70.105 8.610763
70.110 8.843127
70.115 8.996884
70.120 8.728428
70.125 8.7588
70.130 9.071879
70.135 8.814906
70.140 8.778879
70.145 8.930168
70.150 9.125401
70.155 9.580445
70.160 9.589887
70.165 9.149903
70.170 9.622277
70.175 10.059546
70.180 9.918863
70.185 9.50598
70.190 9.153624
70.195 8.642315
70.200 8.645859
70.205 8.266751
70.210 7.669799
70.215 8.031595
70.220 8.015203
70.225 8.202668
70.230 8.760315
70.235 8.732548
70.240 8.464939
70.245 8.017847
70.250 8.356244
70.255 8.103152
70.260 8.080208
70.265 7.703898
70.270 7.448456
70.275 7.468874
70.280 7.799394
70.285 7.610515
70.290 8.017028
70.295 8.378152
70.300 8.713474
70.305 9.343492
70.310 9.610706
70.315 9.272149
70.320 9.316794
70.325 9.514657
70.330 9.801298
70.335 9.650006
70.340 9.595034
70.345 9.838431
70.350 10.05687
70.355 10.129343
70.360 9.867233
70.365 9.686316
70.370 9.491818
70.375 9.254204
70.380 9.133007
70.385 9.072078
70.390 8.976537
70.395 8.503179
70.400 8.496771
70.405 8.732218
70.410 8.455386
70.415 8.418636
70.420 8.016673
70.425 8.007644
70.430 8.413555
70.435 8.497458
70.440 8.410882
70.445 8.870717
70.450 9.115361
70.455 9.255729
70.460 8.978887
70.465 8.669194
70.470 8.831882
70.475 9.224092
70.480 9.553389
70.485 9.612225
70.490 9.584566
70.495 9.459706
70.500 9.480922
70.505 9.366344
70.510 9.031204
70.515 8.246135
70.520 8.166755
70.525 8.20148
70.530 8.702663
70.535 8.436262
70.540 8.311604
70.545 8.206645
70.550 8.333759
70.555 8.183792
70.560 8.223729
70.565 7.961475
70.570 7.86144
70.575 7.972873
70.580 8.580443
70.585 8.784367
70.590 9.009446
70.595 8.654276
70.600 8.73166
70.605 8.532884
70.610 8.207682
70.615 8.07755
70.620 8.257539
70.625 8.49258
70.630 8.68118
70.635 8.958302
70.640 9.012772
70.645 8.677544
70.650 8.793086
70.655 8.529255
70.660 8.237084
70.665 8.114692
70.670 7.750651
70.675 7.918739
70.680 8.057048
70.685 7.528935
70.690 7.574572
70.695 7.550257
70.700 7.666282
70.705 7.752272
70.710 7.827615
70.715 8.157528
70.720 8.480683
70.725 8.380624
70.730 8.871993
70.735 9.122696
70.740 9.169704
70.745 9.215103
70.750 8.506373
70.755 8.368103
70.760 8.134612
70.765 7.754591
70.770 7.538291
70.775 7.737527
70.780 7.573574
70.785 7.650111
70.790 7.807604
70.795 7.653388
70.800 7.752024
70.805 7.672359
70.810 7.630207
70.815 7.541111
70.820 8.121101
70.825 7.777503
70.830 8.037063
70.835 8.343424
70.840 8.101614
70.845 7.956579
70.850 7.72105
70.855 7.195374
70.860 7.226854
70.865 6.879835
70.870 6.355307
70.875 6.217079
70.880 6.3153
70.885 6.707598
70.890 6.835607
70.895 7.272285
70.900 7.516902
70.905 7.841097
70.910 8.15183
70.915 8.059157
70.920 8.166553
70.925 8.060985
70.930 7.879368
70.935 7.614545
70.940 7.554685
70.945 7.396486
70.950 7.744524
70.955 7.580203
70.960 7.503658
70.965 7.620257
70.970 7.874393
70.975 7.811111
70.980 7.963201
70.985 8.150435
70.990 8.172397
70.995 8.201921
71.000 7.700891
71.005 7.698789
71.010 7.576591
71.015 7.357936
71.020 7.025779
71.025 6.747723
71.030 6.771466
71.035 7.163263
71.040 7.248264
71.045 7.418397
71.050 7.096042
71.055 7.44526
71.060 8.109546
71.065 8.700421
71.070 8.503048
71.075 8.27316
71.080 8.325039
71.085 8.312854
71.090 8.189304
71.095 8.124986
71.100 7.960635
71.105 8.024446
71.110 7.970452
71.115 7.876484
71.120 8.22549
71.125 8.426696
71.130 8.346035
71.135 8.002452
71.140 8.145675
71.145 8.348798
71.150 8.171291
71.155 7.858027
71.160 7.612287
71.165 7.402355
71.170 7.230855
71.175 7.127471
71.180 7.18332
71.185 7.463781
71.190 7.718713
71.195 7.695342
71.200 7.996322
71.205 7.80261
71.210 7.802747
71.215 7.864186
71.220 7.86398
71.225 7.349124
71.230 7.153142
71.235 7.085983
71.240 7.313552
71.245 7.403217
71.250 7.434566
71.255 7.518733
71.260 7.669441
71.265 7.815332
71.270 7.926899
71.275 7.97894
71.280 7.784573
71.285 7.476835
71.290 7.300945
71.295 7.413092
71.300 7.427838
71.305 7.51713
71.310 7.711623
71.315 7.539931
71.320 7.872227
71.325 8.10003
71.330 8.461241
71.335 8.568366
71.340 8.431823
71.345 8.629481
71.350 8.996253
71.355 8.58777
71.360 8.211989
71.365 8.157122
71.370 8.294321
71.375 8.393352
71.380 8.209834
71.385 8.01863
71.390 8.230091
71.395 8.470361
71.400 7.779347
71.405 7.932206
71.410 7.958122
71.415 8.086798
71.420 8.12842
71.425 8.35542
71.430 8.62023
71.435 8.786231
71.440 8.425328
71.445 7.820879
71.450 7.479373
71.455 7.677611
71.460 7.542325
71.465 7.607659
71.470 7.732946
71.475 7.720879
71.480 8.210838
71.485 8.492135
71.490 8.223806
71.495 8.166664
71.500 8.303366
71.505 8.71634
71.510 8.770411
71.515 8.578
71.520 8.308352
71.525 8.285589
71.530 8.280249
71.535 7.975593
71.540 7.739518
71.545 8.135707
71.550 8.660834
71.555 8.918398
71.560 8.652427
71.565 8.41659
71.570 7.985538
71.575 7.747971
71.580 7.445684
71.585 7.118339
71.590 7.072415
71.595 7.358756
71.600 7.481207
71.605 7.602612
71.610 7.330026
71.615 7.482705
71.620 7.493335
71.625 7.427452
71.630 7.397653
71.635 7.476512
71.640 7.764261
71.645 7.85345
71.650 7.40825
71.655 7.444939
71.660 7.371436
71.665 7.407164
71.670 7.367779
71.675 7.468407
71.680 7.487807
71.685 7.197051
71.690 7.374507
71.695 7.25226
71.700 7.097628
71.705 7.628655
71.710 7.541175
71.715 7.852931
71.720 7.943413
71.725 8.068662
71.730 8.269185
71.735 8.398929
71.740 7.779615
71.745 7.981408
71.750 8.072239
71.755 8.228033
71.760 8.066513
71.765 8.133485
71.770 7.94784
71.775 7.875348
71.780 7.801124
71.785 7.382486
71.790 7.355237
71.795 7.473914
71.800 7.354095
71.805 7.958408
71.810 8.068254
71.815 8.156655
71.820 8.208323
71.825 8.334278
71.830 8.168082
71.835 7.975024
71.840 7.693113
71.845 8.325236
71.850 8.802004
71.855 9.087559
71.860 8.881001
71.865 8.827904
71.870 8.630029
71.875 8.651834
71.880 8.454056
71.885 8.180305
71.890 7.912379
71.895 7.8598
71.900 8.282143
71.905 8.505222
71.910 8.442952
71.915 8.072046
71.920 8.088944
71.925 8.28983
71.930 8.126943
71.935 7.950149
71.940 8.013343
71.945 7.927197
71.950 8.120669
71.955 8.164996
71.960 8.06781
71.965 7.795638
71.970 7.948678
71.975 7.967397
71.980 7.955388
71.985 7.889114
71.990 7.552516
71.995 7.60137
72.000 7.830114
72.005 7.445909
72.010 6.585468
72.015 6.179091
72.020 6.044746
72.025 6.135996
72.030 6.017043
72.035 6.314343
72.040 6.277208
72.045 6.884507
72.050 7.466101
72.055 7.498051
72.060 7.704748
72.065 8.030561
72.070 8.275782
72.075 8.65459
72.080 8.854671
72.085 8.613375
72.090 8.739161
72.095 8.553072
72.100 8.137118
72.105 7.972154
72.110 8.030058
72.115 7.998291
72.120 7.89105
72.125 8.041871
72.130 8.141169
72.135 8.003197
72.140 7.768199
72.145 7.279695
72.150 7.289022
72.155 7.21343
72.160 7.411223
72.165 7.960465
72.170 8.338656
72.175 8.501362
72.180 8.658946
72.185 8.793321
72.190 9.084352
72.195 8.912192
72.200 8.538248
72.205 8.267129
72.210 8.090757
72.215 8.084115
72.220 8.12018
72.225 7.875766
72.230 7.606953
72.235 7.645687
72.240 8.118333
72.245 8.396068
72.250 8.11734
72.255 8.106309
72.260 8.503943
72.265 8.761313
72.270 8.667471
72.275 8.792991
72.280 8.789037
72.285 8.873111
72.290 8.921851
72.295 8.665091
72.300 8.489045
72.305 8.295228
72.310 7.869159
72.315 7.83022
72.320 7.640267
72.325 7.257806
72.330 7.251073
72.335 7.975353
72.340 8.311146
72.345 8.351068
72.350 8.496621
72.355 8.847172
72.360 8.807863
72.365 8.567005
72.370 7.681485
72.375 7.41856
72.380 7.657978
72.385 7.199487
72.390 7.292267
72.395 7.574791
72.400 7.744739
72.405 7.798687
72.410 8.123392
72.415 8.313042
72.420 8.275564
72.425 8.182712
72.430 7.993852
72.435 7.732279
72.440 7.483006
72.445 7.038812
72.450 7.245549
72.455 7.563318
72.460 7.420832
72.465 7.611062
72.470 8.046851
72.475 8.515203
72.480 8.499064
72.485 8.496661
72.490 9.310063
72.495 9.391253
72.500 9.762194
72.505 9.836362
72.510 9.72385
72.515 9.391934
72.520 8.857696
72.525 8.244387
72.530 7.512405
72.535 7.394186
72.540 7.22287
72.545 7.589048
72.550 7.892941
72.555 8.216271
72.560 8.709043
72.565 8.937788
72.570 8.759021
72.575 8.915393
72.580 9.006537
72.585 9.258796
72.590 9.084051
72.595 9.287801
72.600 9.879311
72.605 9.81692
72.610 9.806105
72.615 9.729753
72.620 9.516595
72.625 9.35773
72.630 8.880281
72.635 8.716368
72.640 8.323191
72.645 7.655351
72.650 7.201943
72.655 7.146988
72.660 7.311831
72.665 7.196742
72.670 7.16557
72.675 7.503298
72.680 7.688764
72.685 7.839474
72.690 7.930711
72.695 7.977299
72.700 8.097001
72.705 8.475312
72.710 8.423584
72.715 8.779802
72.720 8.729171
72.725 8.557462
72.730 8.403711
72.735 7.883217
72.740 7.589206
72.745 7.498836
72.750 7.374761
72.755 7.559683
72.760 7.705156
72.765 7.858173
72.770 7.930515
72.775 8.031233
72.780 7.801033
72.785 7.57724
72.790 7.53509
72.795 7.515467
72.800 8.087456
72.805 8.134583
72.810 8.565131
72.815 8.898744
72.820 9.097779
72.825 9.441689
72.830 9.089285
72.835 9.044516
72.840 9.006005
72.845 8.791807
72.850 8.728398
72.855 8.17464
72.860 7.926064
72.865 7.939681
72.870 7.584974
72.875 7.152291
72.880 6.955847
72.885 6.922182
72.890 7.006375
72.895 6.809469
72.900 7.033831
72.905 7.290874
72.910 7.845325
72.915 7.959729
72.920 8.244199
72.925 8.374518
72.930 8.454461
72.935 8.020452
72.940 8.044491
72.945 7.76311
72.950 7.606311
72.955 7.435703
72.960 6.854198
72.965 6.494504
72.970 6.832929
72.975 6.920304
72.980 6.955756
72.985 6.895619
72.990 7.025395
72.995 7.648109
73.000 7.979483
