!@!!GADDS PLOTSO FILE: Chi integration type
!@!!Title/SampleName: map-172
!@!!Comment: ?
!@!!User: Bruker Instrument Administrator
!@!!Site: University of Illinois Chicago
!@!!Frame: map-172_01_000.gfrm
!@!!Wavelengths    1.54184   1.54056   1.54439
!@!!Frame angles: 2Theta: 63.000 Omega: 50.000 Phi: 0.000 Chi: 90.000
!@!!Integration range: 2Theta: 53.000 to 73.000  Gamma: -105.000 to -75.000
!@!!Integration method: bin normalized
!@!N
!@!SS
!@!M
!@!L 0.0 0.0 0.0 0.0
!@!XDegrees
!@!YCounts
53.000 4.74171
53.005 4.793628
53.010 4.886411
53.015 4.834521
53.020 4.907572
53.025 5.024716
53.030 4.663597
53.035 4.435505
53.040 4.436468
53.045 4.401941
53.050 4.437215
53.055 4.243867
53.060 4.242773
53.065 3.958324
53.070 3.6279
53.075 3.490643
53.080 3.437622
53.085 3.638551
53.090 3.70039
53.095 3.637569
53.100 3.971956
53.105 4.086059
53.110 4.151737
53.115 4.085597
53.120 3.924147
53.125 3.833106
53.130 3.921716
53.135 3.806756
53.140 3.6328
53.145 3.622609
53.150 3.803891
53.155 3.759824
53.160 3.689757
53.165 3.573744
53.170 3.682368
53.175 3.627944
53.180 3.536196
53.185 3.375777
53.190 3.38455
53.195 3.789392
53.200 3.766552
53.205 3.603168
53.210 3.79434
53.215 3.902339
53.220 4.312824
53.225 4.231001
53.230 4.113806
53.235 4.322504
53.240 4.44017
53.245 4.354278
53.250 3.912454
53.255 3.715486
53.260 3.803486
53.265 3.979837
53.270 3.889207
53.275 3.771251
53.280 4.012271
53.285 3.850282
53.290 3.785084
53.295 3.474355
53.300 3.310012
53.305 3.433623
53.310 3.227977
53.315 3.155304
53.320 3.176688
53.325 3.25133
53.330 3.644081
53.335 3.687004
53.340 3.597773
53.345 3.767368
53.350 3.736202
53.355 3.63374
53.360 3.919868
53.365 3.918702
53.370 3.984696
53.375 3.984224
53.380 4.082292
53.385 4.447125
53.390 4.4863
53.395 4.106578
53.400 3.847111
53.405 3.754181
53.410 3.751244
53.415 3.478575
53.420 3.607722
53.425 3.51134
53.430 3.434993
53.435 3.48157
53.440 3.555745
53.445 3.553316
53.450 3.753876
53.455 3.589769
53.460 3.904561
53.465 4.203994
53.470 4.43028
53.475 4.177069
53.480 4.099657
53.485 3.883222
53.490 3.79641
53.495 3.379511
53.500 3.437486
53.505 3.518549
53.510 3.594911
53.515 3.795835
53.520 3.899378
53.525 4.112121
53.530 4.045311
53.535 3.605579
53.540 3.483266
53.545 3.488295
53.550 3.066056
53.555 2.985986
53.560 2.736073
53.565 2.970247
53.570 3.054828
53.575 2.956034
53.580 3.097011
53.585 3.369675
53.590 3.508332
53.595 4.000387
53.600 4.007774
53.605 4.166322
53.610 4.148785
53.615 4.212457
53.620 4.189086
53.625 3.698825
53.630 3.391173
53.635 3.58502
53.640 3.71432
53.645 3.900553
53.650 4.022518
53.655 4.020523
53.660 4.37611
53.665 4.17415
53.670 3.973787
53.675 3.73273
53.680 3.855453
53.685 3.574885
53.690 3.488042
53.695 3.488978
53.700 3.446782
53.705 3.823924
53.710 3.877997
53.715 3.587606
53.720 3.746245
53.725 3.747915
53.730 3.518577
53.735 3.469913
53.740 3.250671
53.745 3.652352
53.750 3.741923
53.755 3.8283
53.760 3.96402
53.765 4.135172
53.770 4.208895
53.775 4.070864
53.780 3.865711
53.785 3.753133
53.790 3.885879
53.795 3.736153
53.800 3.68722
53.805 3.857598
53.810 3.597211
53.815 3.493299
53.820 3.541932
53.825 3.770724
53.830 4.057432
53.835 3.931137
53.840 3.859893
53.845 3.993095
53.850 3.910247
53.855 3.63245
53.860 3.457696
53.865 3.66639
53.870 4.00199
53.875 4.164877
53.880 4.428522
53.885 4.656351
53.890 4.805755
53.895 4.807955
53.900 4.482516
53.905 4.243653
53.910 4.03568
53.915 3.863607
53.920 3.994609
53.925 4.169209
53.930 4.113063
53.935 4.069476
53.940 4.129315
53.945 3.964683
53.950 4.150052
53.955 3.819532
53.960 3.543035
53.965 3.70113
53.970 3.690557
53.975 3.696813
53.980 3.658224
53.985 3.635086
53.990 3.864314
53.995 3.958249
54.000 3.884099
54.005 3.755277
54.010 3.685563
54.015 3.621728
54.020 3.234421
54.025 2.997535
54.030 3.288073
54.035 3.589893
54.040 3.853792
54.045 4.049343
54.050 4.23264
54.055 4.346068
54.060 4.317373
54.065 4.272105
54.070 4.095849
54.075 3.882854
54.080 3.874864
54.085 3.958917
54.090 4.24437
54.095 4.545238
54.100 4.66117
54.105 4.924705
54.110 5.379871
54.115 5.487885
54.120 5.449571
54.125 5.22727
54.130 4.983606
54.135 4.687514
54.140 4.405345
54.145 3.95144
54.150 3.985952
54.155 4.020439
54.160 4.186251
54.165 4.151855
54.170 4.142935
54.175 4.477375
54.180 4.438655
54.185 4.269533
54.190 4.463937
54.195 4.590501
54.200 4.717879
54.205 4.611411
54.210 4.361413
54.215 4.336656
54.220 4.323616
54.225 4.090743
54.230 4.078507
54.235 4.391299
54.240 4.554572
54.245 4.617549
54.250 4.797889
54.255 4.925924
54.260 4.969128
54.265 4.530963
54.270 4.111775
54.275 4.225105
54.280 4.500878
54.285 4.495646
54.290 4.506559
54.295 4.326963
54.300 4.35027
54.305 4.352084
54.310 4.293867
54.315 4.091798
54.320 4.025994
54.325 4.021235
54.330 3.993464
54.335 4.070483
54.340 4.12369
54.345 3.956839
54.350 3.788013
54.355 3.746901
54.360 3.467603
54.365 3.494953
54.370 3.84617
54.375 3.953096
54.380 4.204265
54.385 4.412618
54.390 4.5678
54.395 4.698515
54.400 4.610245
54.405 4.367339
54.410 4.347386
54.415 4.153677
54.420 4.082092
54.425 4.1376
54.430 4.061274
54.435 3.99777
54.440 4.101094
54.445 4.061685
54.450 4.541671
54.455 4.663074
54.460 4.927955
54.465 5.211021
54.470 5.293156
54.475 5.495513
54.480 5.482662
54.485 4.968619
54.490 4.827693
54.495 4.46227
54.500 4.259622
54.505 4.137762
54.510 3.692835
54.515 3.730067
54.520 3.519819
54.525 3.729487
54.530 4.002317
54.535 4.350126
54.540 4.690574
54.545 4.702387
54.550 4.734047
54.555 4.866667
54.560 4.664337
54.565 4.460422
54.570 4.233109
54.575 4.004419
54.580 4.025841
54.585 4.022697
54.590 4.168736
54.595 4.334465
54.600 4.382005
54.605 4.421887
54.610 4.526837
54.615 4.594021
54.620 4.781276
54.625 4.69981
54.630 4.561963
54.635 4.477472
54.640 4.110866
54.645 3.748558
54.650 3.754999
54.655 3.661463
54.660 3.851252
54.665 3.775593
54.670 3.696155
54.675 4.024478
54.680 4.208077
54.685 4.044836
54.690 3.815441
54.695 3.432693
54.700 3.501801
54.705 3.727249
54.710 3.72308
54.715 3.750763
54.720 3.939103
54.725 4.20475
54.730 4.437826
54.735 4.247093
54.740 3.935873
54.745 3.871071
54.750 3.61109
54.755 3.045087
54.760 3.081416
54.765 3.225772
54.770 3.421373
54.775 3.812478
54.780 3.819919
54.785 3.925133
54.790 4.291759
54.795 4.150531
54.800 4.104654
54.805 3.736487
54.810 3.467494
54.815 3.700763
54.820 4.168576
54.825 4.185788
54.830 4.065687
54.835 4.222083
54.840 4.370075
54.845 4.435235
54.850 4.400999
54.855 4.095498
54.860 4.10736
54.865 4.096748
54.870 4.184467
54.875 4.279044
54.880 4.765018
54.885 4.978139
54.890 4.952979
54.895 5.189613
54.900 5.282059
54.905 5.013904
54.910 4.725868
54.915 4.466146
54.920 4.273906
54.925 4.30209
54.930 4.260573
54.935 4.166704
54.940 4.247161
54.945 4.055217
54.950 4.008624
54.955 3.995851
54.960 3.822087
54.965 3.548878
54.970 3.384409
54.975 3.252096
54.980 3.19201
54.985 3.073574
54.990 3.256616
54.995 3.219906
55.000 3.35887
55.005 3.656729
55.010 3.985924
55.015 4.172895
55.020 3.94146
55.025 3.662564
55.030 3.831363
55.035 3.838322
55.040 3.907346
55.045 4.133889
55.050 4.060319
55.055 4.114887
55.060 4.617651
55.065 4.619215
55.070 4.497728
55.075 4.312722
55.080 3.988261
55.085 4.087928
55.090 4.076537
55.095 3.868821
55.100 3.918574
55.105 4.044188
55.110 4.178486
55.115 4.273558
55.120 4.232701
55.125 4.062124
55.130 3.936649
55.135 3.885766
55.140 3.648023
55.145 3.597714
55.150 3.776323
55.155 3.745389
55.160 3.793861
55.165 3.874478
55.170 4.188201
55.175 4.552292
55.180 4.741952
55.185 4.693972
55.190 4.992363
55.195 4.980968
55.200 4.633287
55.205 4.491721
55.210 4.191046
55.215 4.031822
55.220 3.850929
55.225 3.527263
55.230 3.417855
55.235 3.351676
55.240 3.157401
55.245 3.363287
55.250 3.219208
55.255 3.128652
55.260 3.050096
55.265 3.22065
55.270 3.529535
55.275 3.470062
55.280 3.579792
55.285 3.738759
55.290 3.73946
55.295 4.019211
55.300 4.106091
55.305 4.153809
55.310 4.243095
55.315 4.101536
55.320 4.003992
55.325 4.209167
55.330 4.143414
55.335 3.962688
55.340 3.748441
55.345 3.764291
55.350 3.905205
55.355 4.259545
55.360 4.156667
55.365 4.25263
55.370 4.395229
55.375 4.806965
55.380 4.675139
55.385 4.585968
55.390 4.5094
55.395 4.776718
55.400 4.598534
55.405 4.443678
55.410 4.43222
55.415 4.428491
55.420 4.246697
55.425 4.219769
55.430 4.088752
55.435 4.365426
55.440 4.566552
55.445 4.828236
55.450 5.160006
55.455 5.074686
55.460 4.690874
55.465 4.629258
55.470 4.510994
55.475 4.197136
55.480 3.930925
55.485 3.965857
55.490 4.088671
55.495 4.327378
55.500 4.090243
55.505 3.881283
55.510 3.689317
55.515 3.293162
55.520 2.94403
55.525 3.114691
55.530 3.012206
55.535 3.314538
55.540 3.525144
55.545 3.81133
55.550 4.055774
55.555 4.111627
55.560 4.25425
55.565 4.467556
55.570 4.382895
55.575 4.194081
55.580 4.191276
55.585 4.296427
55.590 4.145759
55.595 3.774278
55.600 3.385453
55.605 3.266363
55.610 3.74982
55.615 3.556371
55.620 3.639929
55.625 3.946883
55.630 4.432103
55.635 4.65097
55.640 4.491445
55.645 4.430609
55.650 4.503498
55.655 4.601006
55.660 4.019617
55.665 3.697543
55.670 3.655945
55.675 3.787813
55.680 3.798559
55.685 3.620441
55.690 3.672651
55.695 3.860687
55.700 4.152741
55.705 4.619796
55.710 4.788163
55.715 4.830103
55.720 5.102427
55.725 5.052231
55.730 5.215752
55.735 5.023242
55.740 4.802708
55.745 4.770641
55.750 4.83248
55.755 4.882957
55.760 4.853922
55.765 4.552702
55.770 4.743006
55.775 4.438668
55.780 4.328235
55.785 4.274735
55.790 4.171548
55.795 4.245231
55.800 4.084198
55.805 3.98273
55.810 4.004668
55.815 3.667416
55.820 3.719281
55.825 3.717674
55.830 4.057912
55.835 4.396783
55.840 4.443162
55.845 4.806242
55.850 5.425711
55.855 5.267623
55.860 5.292032
55.865 5.298674
55.870 5.518468
55.875 5.856483
55.880 5.472775
55.885 5.170234
55.890 5.123801
55.895 5.111999
55.900 5.269768
55.905 5.19174
55.910 5.011171
55.915 5.071688
55.920 5.195713
55.925 5.394209
55.930 5.358711
55.935 5.025628
55.940 4.865719
55.945 4.803103
55.950 4.628563
55.955 4.400117
55.960 4.507863
55.965 4.172112
55.970 4.462757
55.975 4.432904
55.980 4.66331
55.985 4.754185
55.990 4.953362
55.995 5.128104
56.000 5.304676
56.005 4.821102
56.010 4.633004
56.015 4.56415
56.020 4.614795
56.025 4.535953
56.030 4.377894
56.035 4.552422
56.040 4.824722
56.045 4.763594
56.050 4.744868
56.055 4.684417
56.060 4.463603
56.065 4.367235
56.070 4.294857
56.075 4.318075
56.080 4.05584
56.085 3.936964
56.090 3.999521
56.095 4.244545
56.100 4.262313
56.105 4.109635
56.110 4.199649
56.115 4.299387
56.120 4.261657
56.125 4.389192
56.130 4.481051
56.135 4.290395
56.140 4.565316
56.145 4.719795
56.150 4.736387
56.155 4.82389
56.160 4.569734
56.165 4.557264
56.170 4.648422
56.175 4.178006
56.180 4.040431
56.185 4.243852
56.190 4.427357
56.195 4.643981
56.200 4.66294
56.205 4.727074
56.210 4.979616
56.215 4.802317
56.220 4.687548
56.225 4.335582
56.230 4.255584
56.235 4.384711
56.240 4.53469
56.245 4.752664
56.250 5.186449
56.255 5.287767
56.260 5.38267
56.265 5.299247
56.270 5.141132
56.275 5.375726
56.280 5.340247
56.285 5.27635
56.290 5.154233
56.295 5.148825
56.300 4.944577
56.305 4.731185
56.310 4.26575
56.315 4.184783
56.320 4.408245
56.325 4.773946
56.330 4.758344
56.335 4.897422
56.340 5.0225
56.345 5.17729
56.350 4.837922
56.355 4.195355
56.360 3.900982
56.365 3.991792
56.370 4.211965
56.375 4.380438
56.380 4.244496
56.385 4.443297
56.390 4.598124
56.395 4.681694
56.400 4.809276
56.405 4.749167
56.410 4.544602
56.415 4.765941
56.420 4.698513
56.425 4.550997
56.430 4.188868
56.435 3.782197
56.440 3.601531
56.445 3.695535
56.450 3.598381
56.455 3.745406
56.460 4.096226
56.465 4.334805
56.470 4.49937
56.475 4.52972
56.480 4.59736
56.485 4.533101
56.490 4.838374
56.495 5.24802
56.500 5.363086
56.505 5.518822
56.510 5.319086
56.515 5.222018
56.520 5.081281
56.525 4.531892
56.530 4.319382
56.535 4.286128
56.540 4.171586
56.545 4.419758
56.550 4.663586
56.555 4.760686
56.560 4.834126
56.565 4.939369
56.570 5.122694
56.575 5.155437
56.580 5.065612
56.585 4.96624
56.590 4.956671
56.595 5.095402
56.600 4.925286
56.605 4.767496
56.610 4.62919
56.615 4.548849
56.620 4.817955
56.625 4.95646
56.630 4.55822
56.635 4.375763
56.640 4.314185
56.645 4.230123
56.650 4.165809
56.655 4.170475
56.660 4.445911
56.665 4.770866
56.670 4.792869
56.675 4.721692
56.680 5.045267
56.685 5.003923
56.690 4.835901
56.695 4.678578
56.700 4.344291
56.705 4.378523
56.710 4.198848
56.715 4.012683
56.720 3.829455
56.725 3.529727
56.730 3.643865
56.735 3.952236
56.740 4.13695
56.745 4.414167
56.750 4.340023
56.755 4.482615
56.760 4.573483
56.765 4.443317
56.770 4.467888
56.775 4.509291
56.780 4.461727
56.785 4.513419
56.790 4.362339
56.795 4.574702
56.800 4.696032
56.805 4.847723
56.810 5.155265
56.815 5.530514
56.820 5.628836
56.825 5.767179
56.830 5.377592
56.835 4.977129
56.840 4.865222
56.845 4.345596
56.850 4.109114
56.855 4.228425
56.860 4.011132
56.865 4.231998
56.870 4.866475
56.875 4.763685
56.880 5.03222
56.885 5.193225
56.890 5.121926
56.895 5.477274
56.900 5.444307
56.905 5.085615
56.910 5.154315
56.915 5.22534
56.920 5.11285
56.925 5.166564
56.930 5.225737
56.935 5.245924
56.940 5.207588
56.945 5.085075
56.950 5.180716
56.955 5.226391
56.960 5.341138
56.965 5.065358
56.970 5.453591
56.975 5.606797
56.980 5.749412
56.985 5.574106
56.990 5.54588
56.995 5.373119
57.000 5.293711
57.005 5.086656
57.010 5.293818
57.015 5.445012
57.020 5.493648
57.025 5.360826
57.030 5.438981
57.035 5.661872
57.040 5.441374
57.045 5.0693
57.050 4.758002
57.055 4.814914
57.060 4.765686
57.065 4.549521
57.070 4.136202
57.075 4.366201
57.080 4.456671
57.085 4.487766
57.090 4.303033
57.095 4.525554
57.100 4.734398
57.105 4.864834
57.110 4.754304
57.115 4.679838
57.120 4.909042
57.125 5.146507
57.130 5.167245
57.135 5.0209
57.140 4.926384
57.145 5.007903
57.150 4.724771
57.155 4.424765
57.160 4.355319
57.165 4.521858
57.170 4.512978
57.175 4.407094
57.180 4.357765
57.185 4.317421
57.190 4.383066
57.195 4.513438
57.200 4.252338
57.205 4.469795
57.210 4.457548
57.215 4.399002
57.220 4.813294
57.225 4.968742
57.230 4.802984
57.235 4.898542
57.240 4.841117
57.245 4.89815
57.250 5.236865
57.255 5.062829
57.260 4.888752
57.265 4.838461
57.270 4.967687
57.275 4.83285
57.280 5.062201
57.285 4.93046
57.290 4.862932
57.295 4.998713
57.300 5.06366
57.305 5.134563
57.310 5.444626
57.315 5.470749
57.320 5.331318
57.325 5.547915
57.330 5.77698
57.335 5.825263
57.340 5.468298
57.345 5.239589
57.350 5.047137
57.355 5.055189
57.360 4.649663
57.365 4.380546
57.370 4.375401
57.375 4.804873
57.380 4.974004
57.385 4.885231
57.390 5.131172
57.395 5.226927
57.400 5.311327
57.405 5.332656
57.410 5.060102
57.415 4.72066
57.420 4.84025
57.425 4.935408
57.430 5.118413
57.435 5.048813
57.440 5.146595
57.445 5.273562
57.450 5.662657
57.455 5.592086
57.460 5.678039
57.465 5.59946
57.470 5.700859
57.475 5.839516
57.480 5.790337
57.485 5.497059
57.490 5.466305
57.495 5.654375
57.500 5.432491
57.505 5.118069
57.510 4.789881
57.515 4.865196
57.520 4.653666
57.525 4.392971
57.530 4.371806
57.535 4.508597
57.540 4.729053
57.545 4.837966
57.550 4.769632
57.555 5.176425
57.560 5.273744
57.565 5.155019
57.570 5.393126
57.575 5.491484
57.580 5.786037
57.585 6.033086
57.590 6.468474
57.595 6.572487
57.600 6.377063
57.605 6.388288
57.610 6.130986
57.615 6.26497
57.620 6.190706
57.625 5.772205
57.630 5.729981
57.635 5.68201
57.640 5.326406
57.645 5.079002
57.650 4.698026
57.655 5.128865
57.660 5.18588
57.665 4.917052
57.670 5.034712
57.675 5.177361
57.680 5.400178
57.685 5.295437
57.690 4.861545
57.695 5.130649
57.700 5.372928
57.705 5.594871
57.710 5.728018
57.715 5.550226
57.720 5.618149
57.725 5.494577
57.730 4.79587
57.735 4.675748
57.740 4.651799
57.745 5.042851
57.750 5.447461
57.755 5.445708
57.760 5.755864
57.765 6.188856
57.770 6.191967
57.775 5.904757
57.780 5.535429
57.785 5.276094
57.790 5.195592
57.795 4.783794
57.800 4.901588
57.805 5.202131
57.810 4.941772
57.815 4.951194
57.820 5.176243
57.825 5.185521
57.830 5.269865
57.835 4.958154
57.840 4.65058
57.845 4.735774
57.850 4.721229
57.855 4.759778
57.860 4.966194
57.865 5.114408
57.870 5.378356
57.875 5.498676
57.880 5.684299
57.885 5.588416
57.890 5.374411
57.895 5.534139
57.900 5.773925
57.905 5.622946
57.910 5.81067
57.915 5.734392
57.920 5.887702
57.925 5.931464
57.930 5.479278
57.935 5.345389
57.940 5.417541
57.945 5.60898
57.950 5.782808
57.955 5.72412
57.960 5.765152
57.965 5.751187
57.970 5.672655
57.975 5.638783
57.980 5.421245
57.985 5.337923
57.990 5.309122
57.995 5.248449
58.000 5.412381
58.005 5.372477
58.010 5.194756
58.015 4.981061
58.020 4.959962
58.025 4.82323
58.030 4.948584
58.035 5.038585
58.040 5.035536
58.045 5.105336
58.050 5.146763
58.055 5.34603
58.060 5.548219
58.065 5.409976
58.070 5.133008
58.075 5.217388
58.080 5.124492
58.085 5.122944
58.090 4.828071
58.095 4.912235
58.100 5.321607
58.105 5.596174
58.110 5.587669
58.115 5.771551
58.120 5.82152
58.125 5.733072
58.130 5.799744
58.135 5.639591
58.140 5.665037
58.145 6.029802
58.150 6.259655
58.155 6.299084
58.160 6.526492
58.165 6.423738
58.170 6.501478
58.175 6.308908
58.180 5.811777
58.185 5.51124
58.190 5.720883
58.195 5.99492
58.200 6.048514
58.205 6.177436
58.210 6.254892
58.215 6.561451
58.220 6.524657
58.225 6.43109
58.230 6.088691
58.235 6.200363
58.240 6.294056
58.245 6.403154
58.250 6.162703
58.255 6.421616
58.260 5.887145
58.265 5.684554
58.270 5.324633
58.275 4.96944
58.280 5.299218
58.285 5.566473
58.290 5.418487
58.295 5.754212
58.300 6.077897
58.305 6.493678
58.310 6.571585
58.315 6.162936
58.320 6.236406
58.325 6.284935
58.330 6.483665
58.335 6.246568
58.340 5.824236
58.345 6.012834
58.350 6.039046
58.355 5.807939
58.360 5.669457
58.365 5.370875
58.370 5.481696
58.375 5.796496
58.380 5.62687
58.385 5.920424
58.390 6.43435
58.395 6.672898
58.400 6.621085
58.405 6.455936
58.410 6.188834
58.415 5.974485
58.420 5.455785
58.425 5.020052
58.430 4.963034
58.435 4.975526
58.440 5.416771
58.445 5.290833
58.450 5.321377
58.455 5.473265
58.460 5.871714
58.465 6.034234
58.470 6.341322
58.475 6.016998
58.480 6.430605
58.485 6.609461
58.490 6.7974
58.495 6.645323
58.500 7.022304
58.505 7.07087
58.510 7.126973
58.515 7.219075
58.520 7.278517
58.525 7.206647
58.530 7.10323
58.535 6.630862
58.540 6.470891
58.545 6.288905
58.550 6.319386
58.555 6.662502
58.560 7.118609
58.565 7.359128
58.570 7.661244
58.575 8.428889
58.580 8.864552
58.585 8.838013
58.590 8.684943
58.595 8.656918
58.600 8.778315
58.605 8.732258
58.610 8.624919
58.615 8.946705
58.620 9.126329
58.625 9.425548
58.630 9.217918
58.635 8.802088
58.640 8.827078
58.645 8.768138
58.650 8.71682
58.655 8.770669
58.660 8.1985
58.665 8.684674
58.670 9.117039
58.675 9.155251
58.680 8.996556
58.685 8.795963
58.690 8.97723
58.695 9.396913
58.700 9.55678
58.705 9.568877
58.710 9.501971
58.715 9.681778
58.720 10.227239
58.725 10.210713
58.730 10.047955
58.735 9.274764
58.740 9.358477
58.745 9.517938
58.750 9.334629
58.755 8.787238
58.760 9.09188
58.765 8.829232
58.770 9.414306
58.775 9.397302
58.780 9.429113
58.785 9.303938
58.790 9.489516
58.795 9.390578
58.800 9.199641
58.805 8.984962
58.810 9.051397
58.815 8.760832
58.820 8.988784
58.825 9.00738
58.830 8.7551
58.835 9.173106
58.840 9.298399
58.845 9.177087
58.850 8.99549
58.855 8.130647
58.860 7.711006
58.865 7.689921
58.870 7.709534
58.875 7.882779
58.880 8.068635
58.885 8.21092
58.890 8.653825
58.895 8.812806
58.900 8.650764
58.905 8.422249
58.910 7.649965
58.915 7.282028
58.920 7.345265
58.925 7.026752
58.930 7.118115
58.935 7.897182
58.940 7.883949
58.945 7.908953
58.950 7.673622
58.955 7.510231
58.960 7.206608
58.965 6.904965
58.970 6.218528
58.975 6.29666
58.980 6.274681
58.985 6.533976
58.990 6.772805
58.995 6.815887
59.000 6.750097
59.005 6.509401
59.010 6.119258
59.015 6.447754
59.020 6.012667
59.025 5.696896
59.030 5.950701
59.035 6.123321
59.040 6.632575
59.045 6.84552
59.050 6.771726
59.055 6.877781
59.060 7.081266
59.065 7.056457
59.070 6.971328
59.075 6.74417
59.080 7.023306
59.085 6.817336
59.090 6.893958
59.095 6.962579
59.100 6.705526
59.105 6.568501
59.110 6.192645
59.115 5.867708
59.120 5.976516
59.125 5.998885
59.130 6.177007
59.135 6.156272
59.140 6.118053
59.145 6.32689
59.150 6.21829
59.155 6.20907
59.160 6.139137
59.165 6.127221
59.170 6.209597
59.175 6.589684
59.180 6.06497
59.185 5.891156
59.190 6.278031
59.195 6.181781
59.200 6.231825
59.205 6.134956
59.210 5.832014
59.215 6.397996
59.220 6.373562
59.225 6.046302
59.230 5.993793
59.235 5.546678
59.240 5.651989
59.245 5.70688
59.250 5.242562
59.255 5.370687
59.260 5.347277
59.265 5.205459
59.270 5.11485
59.275 5.086162
59.280 5.096522
59.285 5.425351
59.290 5.019597
59.295 4.751613
59.300 5.121689
59.305 5.314846
59.310 5.13545
59.315 5.018487
59.320 5.163718
59.325 5.678711
59.330 6.111527
59.335 6.106638
59.340 6.562671
59.345 6.970621
59.350 7.205155
59.355 7.193037
59.360 6.702857
59.365 6.50734
59.370 6.068484
59.375 5.645133
59.380 5.467172
59.385 5.415291
59.390 5.820548
59.395 6.199919
59.400 6.159908
59.405 6.428195
59.410 6.351902
59.415 6.253294
59.420 6.028381
59.425 5.353536
59.430 5.621957
59.435 5.575064
59.440 5.720627
59.445 5.478097
59.450 5.434623
59.455 5.47943
59.460 5.615042
59.465 5.681478
59.470 5.735412
59.475 5.702506
59.480 6.071111
59.485 6.142199
59.490 6.204121
59.495 5.952119
59.500 5.537345
59.505 5.625725
59.510 5.55468
59.515 5.399096
59.520 5.586738
59.525 5.624822
59.530 5.806136
59.535 5.710132
59.540 5.654735
59.545 5.824759
59.550 6.055326
59.555 5.853503
59.560 5.826077
59.565 6.244321
59.570 6.419858
59.575 6.406826
59.580 6.075793
59.585 5.655872
59.590 5.667029
59.595 5.515716
59.600 5.142343
59.605 5.040523
59.610 4.971189
59.615 5.090329
59.620 5.382139
59.625 5.374276
59.630 5.212802
59.635 5.41287
59.640 5.587493
59.645 5.761578
59.650 5.970071
59.655 5.730463
59.660 5.658205
59.665 5.428898
59.670 5.333866
59.675 5.373713
59.680 5.315831
59.685 5.284308
59.690 5.513987
59.695 5.813956
59.700 6.361091
59.705 6.403188
59.710 6.560546
59.715 6.679967
59.720 6.623849
59.725 6.797326
59.730 6.969211
59.735 6.647093
59.740 6.410739
59.745 6.082545
59.750 5.907471
59.755 6.162726
59.760 6.005046
59.765 5.911702
59.770 6.170273
59.775 6.347588
59.780 6.490033
59.785 6.389756
59.790 6.135904
59.795 6.270504
59.800 5.999845
59.805 5.980091
59.810 6.096338
59.815 6.119545
59.820 6.378034
59.825 6.145213
59.830 5.873844
59.835 6.007354
59.840 5.846977
59.845 5.583137
59.850 5.485969
59.855 5.395666
59.860 5.457558
59.865 5.206226
59.870 5.15248
59.875 5.173628
59.880 5.229208
59.885 5.022862
59.890 4.949618
59.895 5.434875
59.900 5.426035
59.905 5.280992
59.910 5.031834
59.915 4.881957
59.920 5.133536
59.925 5.113676
59.930 4.737094
59.935 4.920254
59.940 4.958759
59.945 5.157197
59.950 5.560578
59.955 5.636163
59.960 5.769656
59.965 6.119188
59.970 5.952096
59.975 6.094249
59.980 6.142863
59.985 5.929627
59.990 5.804195
59.995 5.918799
60.000 6.177552
60.005 6.321017
60.010 6.520709
60.015 6.639837
60.020 6.357225
60.025 6.10616
60.030 5.752843
60.035 5.448717
60.040 5.711916
60.045 5.487215
60.050 5.495435
60.055 5.898479
60.060 6.340828
60.065 6.620491
60.070 6.791733
60.075 6.786568
60.080 6.848334
60.085 7.153076
60.090 7.348759
60.095 7.162883
60.100 6.77986
60.105 6.456488
60.110 6.313015
60.115 6.403773
60.120 6.018885
60.125 5.92463
60.130 5.930166
60.135 6.422301
60.140 6.598113
60.145 6.662865
60.150 6.422647
60.155 6.338242
60.160 6.331775
60.165 6.132215
60.170 5.6775
60.175 5.497184
60.180 5.485883
60.185 5.614008
60.190 5.63904
60.195 5.366203
60.200 5.330478
60.205 5.483305
60.210 5.578958
60.215 5.532783
60.220 5.231296
60.225 4.933372
60.230 4.999827
60.235 5.313125
60.240 5.520248
60.245 5.553185
60.250 5.573388
60.255 5.811863
60.260 6.198081
60.265 6.354636
60.270 6.447116
60.275 6.47305
60.280 6.336464
60.285 6.531788
60.290 6.64232
60.295 6.834467
60.300 6.735751
60.305 6.502482
60.310 6.386859
60.315 6.463267
60.320 6.319489
60.325 6.794814
60.330 6.718946
60.335 7.239557
60.340 7.197756
60.345 7.26089
60.350 6.853556
60.355 6.458799
60.360 5.689785
60.365 5.297031
60.370 4.683494
60.375 4.961721
60.380 4.939298
60.385 5.118902
60.390 5.404252
60.395 5.683248
60.400 5.846706
60.405 5.979015
60.410 5.893944
60.415 6.083755
60.420 6.189287
60.425 6.116333
60.430 6.039171
60.435 5.927106
60.440 6.003214
60.445 5.808516
60.450 5.857007
60.455 5.718715
60.460 5.798009
60.465 6.142926
60.470 6.502215
60.475 6.62348
60.480 6.599145
60.485 6.655215
60.490 6.80564
60.495 7.033022
60.500 6.725111
60.505 6.324771
60.510 6.097197
60.515 5.845802
60.520 5.719608
60.525 5.500335
60.530 5.019791
60.535 4.837512
60.540 4.956775
60.545 5.165494
60.550 5.423556
60.555 5.765646
60.560 5.951396
60.565 6.340355
60.570 6.756138
60.575 6.586651
60.580 6.621867
60.585 6.526709
60.590 6.727926
60.595 7.167613
60.600 6.935439
60.605 6.776819
60.610 7.085068
60.615 6.858877
60.620 6.796094
60.625 6.263837
60.630 5.753241
60.635 5.776972
60.640 5.534538
60.645 5.227647
60.650 5.369336
60.655 5.364699
60.660 5.28634
60.665 5.542273
60.670 5.602382
60.675 6.151289
60.680 6.230272
60.685 6.169936
60.690 6.003942
60.695 6.099477
60.700 6.143647
60.705 6.157069
60.710 5.729893
60.715 5.986261
60.720 6.124027
60.725 6.461144
60.730 6.791722
60.735 6.436213
60.740 6.475957
60.745 6.45104
60.750 6.305282
60.755 6.385379
60.760 6.419573
60.765 5.950471
60.770 6.023107
60.775 6.175637
60.780 6.16639
60.785 5.749645
60.790 5.708292
60.795 5.730191
60.800 5.955091
60.805 6.141238
60.810 6.129859
60.815 6.240131
60.820 6.718038
60.825 6.933306
60.830 7.24705
60.835 7.249518
60.840 7.03096
60.845 6.890295
60.850 6.804498
60.855 6.449075
60.860 6.037079
60.865 5.736876
60.870 5.528865
60.875 5.371368
60.880 5.300775
60.885 5.202284
60.890 5.421988
60.895 5.481125
60.900 5.309985
60.905 5.356464
60.910 5.318737
60.915 5.455477
60.920 5.947834
60.925 6.039179
60.930 6.240449
60.935 6.188637
60.940 6.443962
60.945 6.694348
60.950 6.492401
60.955 6.556562
60.960 6.458598
60.965 6.448835
60.970 6.482046
60.975 6.23395
60.980 5.96771
60.985 5.996017
60.990 5.4244
60.995 4.959863
61.000 4.874964
61.005 4.944695
61.010 5.314111
61.015 5.818915
61.020 5.954662
61.025 6.308597
61.030 6.418511
61.035 6.49294
61.040 6.459497
61.045 6.04466
61.050 6.097777
61.055 5.934394
61.060 5.711448
61.065 5.657355
61.070 5.557639
61.075 5.926466
61.080 6.434917
61.085 6.282547
61.090 6.366516
61.095 6.533381
61.100 6.792758
61.105 6.730116
61.110 6.669743
61.115 6.502611
61.120 6.786142
61.125 6.673876
61.130 6.46743
61.135 6.32765
61.140 6.175156
61.145 5.852843
61.150 5.800419
61.155 5.518154
61.160 5.47192
61.165 5.763122
61.170 5.988641
61.175 6.055373
61.180 6.152906
61.185 5.87391
61.190 6.09758
61.195 6.395111
61.200 6.686629
61.205 6.81418
61.210 7.062776
61.215 7.257923
61.220 7.724005
61.225 7.783383
61.230 7.920176
61.235 7.64463
61.240 7.557657
61.245 7.214068
61.250 6.894542
61.255 6.460388
61.260 6.074703
61.265 6.13622
61.270 5.748504
61.275 5.72735
61.280 5.951362
61.285 5.769746
61.290 5.903502
61.295 5.927889
61.300 5.875808
61.305 6.309118
61.310 6.185975
61.315 6.369704
61.320 6.696834
61.325 6.677805
61.330 6.684951
61.335 6.681377
61.340 6.61618
61.345 7.216083
61.350 7.053224
61.355 6.865472
61.360 6.925031
61.365 6.904329
61.370 6.935272
61.375 6.815711
61.380 6.36239
61.385 6.45674
61.390 6.674168
61.395 6.613662
61.400 6.587323
61.405 6.252504
61.410 5.958312
61.415 5.723484
61.420 5.795948
61.425 5.900066
61.430 5.970387
61.435 5.840672
61.440 5.881123
61.445 5.880636
61.450 6.249559
61.455 6.18891
61.460 6.014544
61.465 6.021227
61.470 6.192314
61.475 6.557304
61.480 6.895245
61.485 6.638005
61.490 6.618438
61.495 6.606647
61.500 6.688586
61.505 7.002657
61.510 7.059956
61.515 6.926278
61.520 6.951905
61.525 6.945148
61.530 7.281771
61.535 7.375499
61.540 7.056827
61.545 6.972521
61.550 6.893079
61.555 7.328177
61.560 7.441284
61.565 7.375515
61.570 6.856375
61.575 6.781538
61.580 6.670106
61.585 6.794834
61.590 6.230775
61.595 5.915388
61.600 5.787693
61.605 5.940335
61.610 5.762593
61.615 5.706161
61.620 5.894078
61.625 5.857601
61.630 5.662988
61.635 5.592286
61.640 5.5133
61.645 5.39011
61.650 5.518689
61.655 5.802802
61.660 6.078276
61.665 6.170615
61.670 5.874311
61.675 6.046854
61.680 6.32562
61.685 5.916534
61.690 5.294783
61.695 5.197866
61.700 5.296383
61.705 5.709486
61.710 6.127856
61.715 6.248497
61.720 6.4959
61.725 6.473931
61.730 6.784914
61.735 6.920053
61.740 6.938989
61.745 6.824757
61.750 7.005729
61.755 6.737928
61.760 6.53793
61.765 6.024335
61.770 5.955088
61.775 5.697146
61.780 5.464941
61.785 5.784197
61.790 6.257313
61.795 6.775761
61.800 6.98806
61.805 6.916188
61.810 7.168576
61.815 7.653692
61.820 7.50532
61.825 7.281744
61.830 7.084404
61.835 7.048931
61.840 7.069099
61.845 6.830876
61.850 6.423139
61.855 5.832385
61.860 6.151015
61.865 6.419402
61.870 6.543943
61.875 7.031859
61.880 7.58611
61.885 7.57564
61.890 7.631303
61.895 7.243283
61.900 7.271109
61.905 7.263842
61.910 6.880232
61.915 6.40581
61.920 6.225631
61.925 6.584226
61.930 6.941916
61.935 7.009075
61.940 7.314997
61.945 7.039244
61.950 6.891346
61.955 7.018034
61.960 6.891572
61.965 6.89637
61.970 6.544902
61.975 6.035214
61.980 6.185214
61.985 6.182918
61.990 6.171013
61.995 6.132963
62.000 6.027971
62.005 5.965445
62.010 6.082835
62.015 6.151324
62.020 6.267228
62.025 6.056859
62.030 5.608023
62.035 5.518219
62.040 5.859995
62.045 5.824598
62.050 5.650452
62.055 5.455728
62.060 5.88863
62.065 6.535608
62.070 6.556308
62.075 6.388555
62.080 6.590317
62.085 6.97613
62.090 6.959639
62.095 6.681133
62.100 6.474748
62.105 6.442782
62.110 6.491745
62.115 6.443306
62.120 6.253142
62.125 6.570249
62.130 6.59734
62.135 6.627635
62.140 6.937397
62.145 7.170487
62.150 7.181526
62.155 7.29851
62.160 7.394952
62.165 7.295433
62.170 6.927363
62.175 6.516466
62.180 6.248834
62.185 6.648033
62.190 6.765021
62.195 6.659112
62.200 6.914763
62.205 7.58049
62.210 7.768044
62.215 7.758176
62.220 7.554516
62.225 7.190544
62.230 7.079422
62.235 7.0464
62.240 6.598654
62.245 6.672163
62.250 6.840137
62.255 6.858221
62.260 6.98037
62.265 7.142203
62.270 6.923856
62.275 7.282412
62.280 6.910219
62.285 6.611863
62.290 6.332112
62.295 6.309724
62.300 6.366179
62.305 6.264621
62.310 5.612083
62.315 5.787749
62.320 6.004539
62.325 6.096579
62.330 6.203053
62.335 6.288641
62.340 6.517993
62.345 6.762871
62.350 6.78463
62.355 6.665977
62.360 6.563482
62.365 6.42347
62.370 6.334921
62.375 6.163793
62.380 6.221034
62.385 6.39346
62.390 6.684222
62.395 6.623959
62.400 6.422969
62.405 6.42062
62.410 6.621274
62.415 7.000975
62.420 6.935628
62.425 6.953104
62.430 7.283307
62.435 7.201651
62.440 7.156924
62.445 7.310458
62.450 7.213579
62.455 6.831764
62.460 6.597895
62.465 6.551531
62.470 6.74247
62.475 6.901087
62.480 6.436499
62.485 6.782031
62.490 7.29172
62.495 7.418239
62.500 7.746954
62.505 7.978677
62.510 7.890334
62.515 7.793037
62.520 7.583758
62.525 7.314905
62.530 6.973475
62.535 6.634825
62.540 6.212837
62.545 6.337666
62.550 6.604884
62.555 6.525691
62.560 6.728379
62.565 7.054383
62.570 6.952132
62.575 7.064713
62.580 7.059653
62.585 7.258359
62.590 7.070606
62.595 6.749307
62.600 6.831026
62.605 7.224474
62.610 7.458601
62.615 7.404683
62.620 7.207436
62.625 7.245967
62.630 7.650084
62.635 7.593572
62.640 7.365451
62.645 7.192884
62.650 7.159156
62.655 6.954146
62.660 6.686296
62.665 6.333194
62.670 6.15012
62.675 6.250604
62.680 6.568065
62.685 6.934147
62.690 7.322843
62.695 7.689435
62.700 7.952543
62.705 8.038057
62.710 8.056908
62.715 7.611564
62.720 7.328199
62.725 7.12438
62.730 6.851242
62.735 7.016649
62.740 7.113596
62.745 7.051036
62.750 7.072398
62.755 6.768034
62.760 6.809807
62.765 6.88894
62.770 6.426061
62.775 6.143426
62.780 6.111945
62.785 6.304116
62.790 6.353542
62.795 5.985642
62.800 5.838589
62.805 5.948361
62.810 5.87393
62.815 5.678887
62.820 5.90516
62.825 6.366804
62.830 6.736415
62.835 6.846569
62.840 7.013608
62.845 7.350705
62.850 7.410644
62.855 7.112491
62.860 6.717221
62.865 6.567362
62.870 6.769906
62.875 6.715232
62.880 6.511392
62.885 6.737796
62.890 6.600665
62.895 6.521403
62.900 6.35676
62.905 6.406786
62.910 6.488873
62.915 6.607963
62.920 6.250608
62.925 6.386881
62.930 6.348554
62.935 6.629802
62.940 6.316555
62.945 5.962554
62.950 6.037604
62.955 6.400633
62.960 6.363917
62.965 6.221408
62.970 5.894352
62.975 5.675939
62.980 6.029273
62.985 6.149508
62.990 6.019597
62.995 6.1861
63.000 6.445765
63.005 6.883022
63.010 7.103049
63.015 6.732876
63.020 6.49241
63.025 6.730035
63.030 6.586745
63.035 7.025709
63.040 7.134332
63.045 7.27211
63.050 7.547596
63.055 7.887164
63.060 7.770451
63.065 7.931476
63.070 7.92592
63.075 8.16137
63.080 8.230788
63.085 8.271478
63.090 8.054682
63.095 8.156905
63.100 8.277677
63.105 7.987127
63.110 7.504245
63.115 7.37662
63.120 7.329048
63.125 7.346945
63.130 7.207799
63.135 7.117715
63.140 7.118416
63.145 7.259849
63.150 7.426651
63.155 7.532011
63.160 7.462477
63.165 7.446371
63.170 7.137855
63.175 6.899702
63.180 6.847806
63.185 6.586264
63.190 6.19559
63.195 6.396931
63.200 6.640658
63.205 6.857495
63.210 7.242027
63.215 7.278769
63.220 7.187417
63.225 7.217327
63.230 7.292243
63.235 6.879839
63.240 6.794798
63.245 6.61257
63.250 6.438207
63.255 6.935765
63.260 6.923494
63.265 6.661672
63.270 6.60978
63.275 6.783921
63.280 6.851596
63.285 7.026241
63.290 6.942395
63.295 7.141875
63.300 7.374574
63.305 7.588937
63.310 7.699392
63.315 7.738491
63.320 7.890639
63.325 7.641966
63.330 7.786551
63.335 7.845988
63.340 7.644855
63.345 7.274347
63.350 7.529034
63.355 7.612798
63.360 7.478391
63.365 7.118518
63.370 7.004323
63.375 7.034201
63.380 6.9603
63.385 6.447901
63.390 6.469612
63.395 6.94675
63.400 7.40397
63.405 7.349205
63.410 7.630022
63.415 7.679065
63.420 7.721335
63.425 7.280397
63.430 6.881791
63.435 6.353207
63.440 6.25203
63.445 6.227391
63.450 6.222194
63.455 6.311829
63.460 6.43103
63.465 6.476946
63.470 6.759891
63.475 7.153815
63.480 7.329952
63.485 7.813231
63.490 7.901195
63.495 8.052149
63.500 8.175222
63.505 7.960382
63.510 8.006083
63.515 7.828067
63.520 7.372036
63.525 7.158012
63.530 7.086991
63.535 7.028223
63.540 7.272996
63.545 7.141955
63.550 6.996039
63.555 7.2775
63.560 7.081172
63.565 7.367619
63.570 7.573769
63.575 7.785666
63.580 7.575853
63.585 8.040513
63.590 7.848317
63.595 7.764566
63.600 7.398312
63.605 7.170763
63.610 6.632496
63.615 6.566501
63.620 6.551566
63.625 6.58093
63.630 6.701115
63.635 6.400211
63.640 6.335617
63.645 6.990662
63.650 7.378817
63.655 7.1464
63.660 7.167994
63.665 7.250402
63.670 7.596955
63.675 7.721012
63.680 7.369511
63.685 7.366259
63.690 7.866929
63.695 7.939205
63.700 8.018117
63.705 7.520117
63.710 7.544096
63.715 7.114824
63.720 6.893018
63.725 6.672723
63.730 6.975361
63.735 7.516587
63.740 7.99631
63.745 8.15411
63.750 8.757244
63.755 8.851717
63.760 8.637523
63.765 8.499395
63.770 8.126926
63.775 8.079807
63.780 7.675237
63.785 7.325307
63.790 7.1609
63.795 6.970685
63.800 6.565724
63.805 6.245983
63.810 6.333478
63.815 6.38462
63.820 6.285235
63.825 6.233935
63.830 6.46651
63.835 6.834111
63.840 6.591688
63.845 6.774998
63.850 6.79565
63.855 6.912916
63.860 7.564994
63.865 7.724241
63.870 7.857199
63.875 8.342189
63.880 8.455695
63.885 8.872912
63.890 8.758517
63.895 8.271074
63.900 8.04225
63.905 7.593753
63.910 7.657879
63.915 7.507571
63.920 7.22577
63.925 7.368413
63.930 7.352053
63.935 7.320493
63.940 7.39515
63.945 6.938901
63.950 6.735117
63.955 6.914111
63.960 7.008072
63.965 7.287982
63.970 7.707649
63.975 8.641037
63.980 8.935325
63.985 9.022662
63.990 9.230605
63.995 9.37638
64.000 9.481989
64.005 9.529149
64.010 9.372596
64.015 9.641081
64.020 9.932975
64.025 9.632342
64.030 9.569337
64.035 9.595412
64.040 9.494323
64.045 9.085877
64.050 8.652287
64.055 8.147756
64.060 8.230464
64.065 8.069351
64.070 7.813717
64.075 7.728406
64.080 7.960137
64.085 8.387245
64.090 8.837083
64.095 8.926253
64.100 8.934838
64.105 8.828654
64.110 8.68323
64.115 8.173037
64.120 8.245121
64.125 7.852067
64.130 7.91815
64.135 8.362955
64.140 8.50394
64.145 8.438529
64.150 8.935871
64.155 9.20266
64.160 9.596211
64.165 9.26355
64.170 9.102015
64.175 9.00364
64.180 9.623446
64.185 9.674993
64.190 9.3078
64.195 9.223609
64.200 9.242156
64.205 9.466287
64.210 9.888008
64.215 9.465217
64.220 9.431526
64.225 9.556786
64.230 9.501758
64.235 9.597334
64.240 9.566132
64.245 9.66834
64.250 9.735288
64.255 10.09186
64.260 10.460392
64.265 10.849167
64.270 11.238509
64.275 10.808969
64.280 10.751104
64.285 10.691056
64.290 10.678595
64.295 10.784135
64.300 10.930091
64.305 10.998743
64.310 11.712852
64.315 11.811064
64.320 12.30247
64.325 12.20176
64.330 12.013242
64.335 12.216723
64.340 12.502468
64.345 12.327658
64.350 12.70725
64.355 12.797117
64.360 13.199348
64.365 13.339643
64.370 13.529711
64.375 13.783461
64.380 14.390936
64.385 14.34078
64.390 14.750701
64.395 14.765579
64.400 15.031569
64.405 15.113823
64.410 14.915002
64.415 14.971798
64.420 15.125988
64.425 15.206197
64.430 15.928331
64.435 16.032162
64.440 15.860286
64.445 15.890236
64.450 15.899143
64.455 16.040426
64.460 16.357105
64.465 16.113937
64.470 15.648523
64.475 15.526196
64.480 15.783476
64.485 15.547738
64.490 14.671293
64.495 14.0579
64.500 13.611388
64.505 13.730941
64.510 13.623132
64.515 13.18511
64.520 13.198504
64.525 13.414943
64.530 13.853366
64.535 13.932487
64.540 14.159478
64.545 14.55271
64.550 14.353217
64.555 14.542869
64.560 14.701231
64.565 14.551018
64.570 14.094838
64.575 13.695772
64.580 13.009252
64.585 13.081677
64.590 12.947857
64.595 12.601323
64.600 12.255699
64.605 12.166764
64.610 12.619251
64.615 12.792536
64.620 12.570282
64.625 12.37077
64.630 12.498816
64.635 12.688972
64.640 13.208776
64.645 12.787532
64.650 12.590496
64.655 12.199647
64.660 11.921142
64.665 11.577481
64.670 11.29515
64.675 10.814465
64.680 10.377427
64.685 10.329523
64.690 10.439681
64.695 10.567089
64.700 10.742936
64.705 10.98819
64.710 10.638938
64.715 10.765634
64.720 10.771764
64.725 11.192654
64.730 10.816316
64.735 10.319078
64.740 10.421224
64.745 11.018721
64.750 10.737706
64.755 10.49776
64.760 10.506527
64.765 10.703283
64.770 10.791545
64.775 10.25601
64.780 9.849942
64.785 9.944279
64.790 9.818064
64.795 9.282664
64.800 9.216517
64.805 9.077706
64.810 9.482675
64.815 9.33077
64.820 8.932154
64.825 9.081676
64.830 9.236562
64.835 9.154455
64.840 9.173283
64.845 8.976951
64.850 9.251779
64.855 9.643524
64.860 9.576797
64.865 9.488799
64.870 9.46897
64.875 9.768746
64.880 9.548121
64.885 9.054368
64.890 9.171536
64.895 9.261777
64.900 9.277677
64.905 9.436539
64.910 9.230555
64.915 9.012546
64.920 9.666405
64.925 9.521363
64.930 9.30421
64.935 9.076065
64.940 8.701335
64.945 8.578851
64.950 8.874907
64.955 8.624543
64.960 8.689729
64.965 8.747955
64.970 8.956223
64.975 9.133797
64.980 9.127717
64.985 9.378698
64.990 9.755903
64.995 10.209721
65.000 10.551773
65.005 10.631959
65.010 10.93751
65.015 11.449669
65.020 11.780586
65.025 11.435917
65.030 11.364164
65.035 11.33403
65.040 11.550161
65.045 11.398255
65.050 11.184596
65.055 10.831508
65.060 10.945574
65.065 11.130195
65.070 11.307592
65.075 11.575849
65.080 11.753715
65.085 11.90108
65.090 12.049442
65.095 12.103174
65.100 12.199692
65.105 12.292951
65.110 12.085972
65.115 12.230925
65.120 12.547488
65.125 12.376271
65.130 12.241918
65.135 12.158021
65.140 12.071983
65.145 12.0426
65.150 11.693565
65.155 11.164172
65.160 11.490843
65.165 11.784878
65.170 11.664347
65.175 11.725996
65.180 12.159924
65.185 12.346305
65.190 12.552232
65.195 12.463269
65.200 12.463593
65.205 12.710155
65.210 12.563848
65.215 12.678128
65.220 13.241088
65.225 13.56384
65.230 13.474892
65.235 13.23968
65.240 12.944378
65.245 12.904352
65.250 12.832971
65.255 12.452828
65.260 12.121157
65.265 12.491391
65.270 12.769218
65.275 13.278068
65.280 13.497064
65.285 13.221016
65.290 13.698064
65.295 13.798182
65.300 13.584054
65.305 13.112788
65.310 12.550834
65.315 12.360926
65.320 12.716942
65.325 12.274701
65.330 12.347532
65.335 12.326049
65.340 12.706209
65.345 12.716183
65.350 12.593061
65.355 12.309477
65.360 12.242736
65.365 12.168708
65.370 12.077645
65.375 11.790413
65.380 11.822235
65.385 12.327483
65.390 12.217175
65.395 12.276215
65.400 12.368958
65.405 12.532779
65.410 12.693215
65.415 12.649765
65.420 12.290349
65.425 12.782454
65.430 12.647887
65.435 12.740126
65.440 12.740543
65.445 12.676031
65.450 12.542068
65.455 12.518299
65.460 12.385144
65.465 12.597669
65.470 12.159238
65.475 12.521262
65.480 13.202671
65.485 13.1972
65.490 13.144697
65.495 12.938485
65.500 12.72324
65.505 12.509474
65.510 12.126089
65.515 12.039147
65.520 12.60277
65.525 12.585127
65.530 12.64597
65.535 12.896969
65.540 13.529953
65.545 13.171969
65.550 12.227002
65.555 11.709264
65.560 11.703876
65.565 11.998845
65.570 12.054259
65.575 11.910147
65.580 12.134878
65.585 12.968801
65.590 13.320595
65.595 13.496441
65.600 13.518252
65.605 13.714102
65.610 13.404687
65.615 13.407315
65.620 13.20806
65.625 12.927375
65.630 12.693372
65.635 12.286711
65.640 11.865963
65.645 12.298265
65.650 12.196124
65.655 11.821283
65.660 11.844418
65.665 11.551435
65.670 11.26909
65.675 11.446954
65.680 10.881321
65.685 10.659356
65.690 10.671877
65.695 10.648399
65.700 10.958328
65.705 11.337907
65.710 11.466838
65.715 11.81153
65.720 12.114585
65.725 12.270772
65.730 11.973668
65.735 11.593963
65.740 11.314694
65.745 10.965284
65.750 10.767906
65.755 10.798654
65.760 10.722148
65.765 10.843381
65.770 10.863659
65.775 10.748046
65.780 10.926447
65.785 10.714415
65.790 10.412381
65.795 10.202514
65.800 10.308111
65.805 10.52896
65.810 10.601336
65.815 10.454618
65.820 10.733841
65.825 11.101313
65.830 11.28337
65.835 11.42998
65.840 11.227647
65.845 11.041252
65.850 11.197997
65.855 10.901882
65.860 10.257803
65.865 9.821374
65.870 9.449043
65.875 9.341265
65.880 9.65042
65.885 9.510734
65.890 9.248444
65.895 9.423806
65.900 9.111215
65.905 9.134496
65.910 8.987143
65.915 8.647198
65.920 8.790013
65.925 9.220853
65.930 9.267373
65.935 9.872005
65.940 10.051346
65.945 10.266024
65.950 10.515131
65.955 10.664116
65.960 10.552941
65.965 10.685743
65.970 10.546227
65.975 10.571482
65.980 10.204619
65.985 9.73949
65.990 9.376373
65.995 9.053987
66.000 8.959305
66.005 8.85393
66.010 8.717772
66.015 8.859144
66.020 8.930182
66.025 9.032846
66.030 9.061587
66.035 8.64887
66.040 8.649843
66.045 8.616341
66.050 8.554472
66.055 8.671318
66.060 8.501504
66.065 8.493647
66.070 8.747934
66.075 8.557354
66.080 8.462862
66.085 8.550162
66.090 8.464598
66.095 8.420584
66.100 8.502995
66.105 8.833607
66.110 8.895879
66.115 8.661225
66.120 8.672716
66.125 8.821856
66.130 8.881832
66.135 8.55585
66.140 7.792635
66.145 7.509454
66.150 7.533486
66.155 7.282294
66.160 6.875166
66.165 7.031473
66.170 6.963565
66.175 7.426776
66.180 7.919435
66.185 7.936402
66.190 7.84802
66.195 8.104402
66.200 7.749709
66.205 7.823632
66.210 7.6718
66.215 7.490677
66.220 7.65855
66.225 7.713262
66.230 7.726366
66.235 8.035902
66.240 8.212445
66.245 8.119988
66.250 8.22823
66.255 7.969973
66.260 7.782433
66.265 7.520175
66.270 7.251264
66.275 7.198669
66.280 7.23667
66.285 7.104316
66.290 7.334882
66.295 7.566238
66.300 7.669111
66.305 7.445024
66.310 7.29015
66.315 7.509736
66.320 7.625581
66.325 7.546524
66.330 7.208622
66.335 6.808482
66.340 7.164304
66.345 7.221566
66.350 7.234261
66.355 7.310349
66.360 7.295237
66.365 7.799456
66.370 8.37755
66.375 8.620065
66.380 8.92737
66.385 8.840148
66.390 8.743766
66.395 8.889614
66.400 8.688784
66.405 8.73288
66.410 8.334261
66.415 7.912212
66.420 7.655173
66.425 7.713985
66.430 7.914867
66.435 7.989877
66.440 7.593369
66.445 7.63837
66.450 7.555143
66.455 7.798933
66.460 7.670607
66.465 7.476289
66.470 7.309547
66.475 7.487213
66.480 7.966754
66.485 8.394006
66.490 8.326639
66.495 8.343737
66.500 8.195089
66.505 8.237572
66.510 8.120459
66.515 7.870438
66.520 7.915509
66.525 7.863484
66.530 7.966727
66.535 7.916376
66.540 7.886987
66.545 8.124525
66.550 8.229002
66.555 7.843563
66.560 7.907015
66.565 7.827704
66.570 8.130641
66.575 8.326391
66.580 7.982401
66.585 7.537202
66.590 7.487969
66.595 7.740558
66.600 7.743564
66.605 7.653111
66.610 7.326751
66.615 7.267192
66.620 7.599736
66.625 7.924623
66.630 7.474089
66.635 7.538564
66.640 7.149231
66.645 7.16654
66.650 7.577752
66.655 7.440342
66.660 7.081522
66.665 7.063567
66.670 6.901639
66.675 7.250057
66.680 7.647553
66.685 7.385639
66.690 6.91071
66.695 7.290694
66.700 7.125901
66.705 7.244213
66.710 7.369289
66.715 7.113048
66.720 7.352608
66.725 7.641199
66.730 7.488435
66.735 7.935491
66.740 7.796374
66.745 7.748967
66.750 7.781691
66.755 7.814191
66.760 8.447278
66.765 8.528563
66.770 8.074271
66.775 8.400488
66.780 8.599682
66.785 8.474946
66.790 8.217024
66.795 7.878683
66.800 7.888617
66.805 8.110163
66.810 7.771832
66.815 7.331386
66.820 7.33156
66.825 7.430957
66.830 7.67661
66.835 7.498731
66.840 7.450143
66.845 7.510433
66.850 7.807564
66.855 8.039
66.860 7.870972
66.865 7.384463
66.870 7.530595
66.875 7.911351
66.880 8.018418
66.885 7.929662
66.890 7.444828
66.895 7.571457
66.900 7.517827
66.905 7.413938
66.910 7.437499
66.915 7.401223
66.920 7.310315
66.925 7.455241
66.930 7.556611
66.935 7.855612
66.940 7.842623
66.945 7.40934
66.950 7.265333
66.955 7.033759
66.960 7.184941
66.965 7.934243
66.970 8.213384
66.975 8.298553
66.980 8.492006
66.985 8.801469
66.990 9.320648
66.995 9.185981
67.000 8.172656
67.005 7.952615
67.010 7.917274
67.015 7.893486
67.020 7.925732
67.025 8.052703
67.030 8.454181
67.035 8.584654
67.040 8.533525
67.045 8.640091
67.050 8.562621
67.055 8.373786
67.060 7.957528
67.065 7.504552
67.070 7.847141
67.075 7.768342
67.080 7.59172
67.085 7.560027
67.090 7.55229
67.095 7.6243
67.100 7.352536
67.105 6.9252
67.110 6.831244
67.115 7.062907
67.120 7.262591
67.125 7.233922
67.130 7.491774
67.135 8.091834
67.140 8.428629
67.145 8.809036
67.150 8.607957
67.155 8.444168
67.160 8.43166
67.165 8.791925
67.170 8.392477
67.175 8.441568
67.180 8.378717
67.185 8.341502
67.190 8.455921
67.195 8.225953
67.200 7.901541
67.205 7.647088
67.210 7.158093
67.215 7.301021
67.220 7.762333
67.225 7.587779
67.230 7.674715
67.235 7.670522
67.240 7.856021
67.245 7.950427
67.250 7.528189
67.255 7.462564
67.260 7.698454
67.265 7.814482
67.270 7.850389
67.275 7.874651
67.280 8.163965
67.285 8.606326
67.290 8.819047
67.295 8.966269
67.300 8.972055
67.305 8.955361
67.310 8.689998
67.315 8.334277
67.320 8.207426
67.325 7.844912
67.330 7.772848
67.335 7.886875
67.340 7.72508
67.345 7.922192
67.350 8.403996
67.355 8.013573
67.360 7.766639
67.365 7.574089
67.370 7.730846
67.375 8.105336
67.380 8.01269
67.385 7.822697
67.390 8.094711
67.395 8.460033
67.400 8.778907
67.405 8.840752
67.410 8.78199
67.415 8.454313
67.420 8.195365
67.425 8.09967
67.430 8.040011
67.435 8.001239
67.440 7.837431
67.445 7.777463
67.450 8.152808
67.455 8.619037
67.460 8.641877
67.465 8.838563
67.470 8.590369
67.475 8.673578
67.480 9.004761
67.485 9.037769
67.490 8.532922
67.495 8.27789
67.500 8.521316
67.505 8.805326
67.510 8.735684
67.515 8.460155
67.520 8.505909
67.525 8.704224
67.530 8.745971
67.535 8.113463
67.540 7.971884
67.545 8.135007
67.550 8.078067
67.555 8.26387
67.560 8.37679
67.565 8.561922
67.570 8.678485
67.575 8.548312
67.580 8.342057
67.585 8.342787
67.590 8.104086
67.595 7.781952
67.600 7.645738
67.605 7.865686
67.610 7.736847
67.615 8.239059
67.620 8.672019
67.625 9.103728
67.630 9.255436
67.635 9.167521
67.640 8.800119
67.645 8.468573
67.650 8.173482
67.655 7.909168
67.660 7.893363
67.665 7.697977
67.670 7.846131
67.675 8.340681
67.680 8.69055
67.685 8.811239
67.690 8.311432
67.695 8.214154
67.700 8.579439
67.705 8.498638
67.710 8.386915
67.715 8.274973
67.720 7.993207
67.725 8.547853
67.730 8.471981
67.735 8.354183
67.740 8.207273
67.745 7.675031
67.750 7.631106
67.755 7.614302
67.760 7.475892
67.765 7.595882
67.770 7.628423
67.775 7.978982
67.780 8.215755
67.785 8.182754
67.790 8.086616
67.795 8.136703
67.800 8.005277
67.805 7.913588
67.810 7.938621
67.815 8.055029
67.820 8.116372
67.825 7.813044
67.830 7.463651
67.835 7.020836
67.840 6.958634
67.845 6.992527
67.850 6.880729
67.855 6.846912
67.860 7.22305
67.865 7.499983
67.870 7.768864
67.875 8.015594
67.880 7.937892
67.885 7.769301
67.890 7.757543
67.895 7.885721
67.900 8.507667
67.905 8.314011
67.910 7.759525
67.915 7.721255
67.920 7.816246
67.925 7.897854
67.930 7.513983
67.935 7.28836
67.940 7.721387
67.945 8.173255
67.950 8.404611
67.955 8.355448
67.960 8.226765
67.965 8.707465
67.970 8.546186
67.975 8.174212
67.980 8.066139
67.985 7.854759
67.990 8.03233
67.995 8.309678
68.000 7.942615
68.005 8.301924
68.010 8.588383
68.015 8.391572
68.020 8.452979
68.025 8.320875
68.030 8.065754
68.035 7.815855
68.040 7.513447
68.045 7.016523
68.050 7.295227
68.055 7.049352
68.060 7.024465
68.065 7.011675
68.070 7.39977
68.075 7.310038
68.080 7.491114
68.085 7.429063
68.090 7.75749
68.095 8.422827
68.100 8.549609
68.105 8.446631
68.110 8.788712
68.115 8.97069
68.120 9.297673
68.125 9.305494
68.130 9.051997
68.135 9.054106
68.140 9.132549
68.145 9.180708
68.150 8.977964
68.155 8.44983
68.160 8.184891
68.165 8.282275
68.170 8.745186
68.175 8.299145
68.180 8.453112
68.185 9.093481
68.190 9.392584
68.195 9.42222
68.200 8.966187
68.205 8.652901
68.210 9.411295
68.215 9.15924
68.220 8.976792
68.225 8.984076
68.230 9.155611
68.235 9.292027
68.240 9.21703
68.245 8.74535
68.250 8.853245
68.255 8.822824
68.260 8.565772
68.265 8.637094
68.270 8.400901
68.275 8.565705
68.280 8.784298
68.285 9.000683
68.290 9.213833
68.295 9.525041
68.300 9.80035
68.305 10.484906
68.310 10.536939
68.315 10.292503
68.320 10.337602
68.325 10.73947
68.330 10.980128
68.335 10.920677
68.340 10.63089
68.345 10.67103
68.350 10.952372
68.355 10.648458
68.360 10.293226
68.365 9.909446
68.370 9.846265
68.375 9.890273
68.380 9.892021
68.385 9.920811
68.390 9.898275
68.395 9.695705
68.400 9.954377
68.405 9.872232
68.410 10.133656
68.415 9.961681
68.420 10.186724
68.425 10.414574
68.430 10.616096
68.435 10.832778
68.440 10.806203
68.445 10.914225
68.450 11.367204
68.455 11.47164
68.460 11.234008
68.465 11.240626
68.470 11.055224
68.475 11.340262
68.480 11.078354
68.485 11.017715
68.490 11.232383
68.495 11.686935
68.500 11.912003
68.505 11.948911
68.510 12.470343
68.515 12.696155
68.520 12.546931
68.525 12.58903
68.530 12.640762
68.535 12.88817
68.540 12.902444
68.545 12.343595
68.550 12.40465
68.555 12.101472
68.560 12.336482
68.565 11.81808
68.570 11.834132
68.575 11.716363
68.580 11.683158
68.585 11.855745
68.590 12.015411
68.595 11.435139
68.600 11.625587
68.605 11.579309
68.610 11.997956
68.615 11.917063
68.620 12.060235
68.625 12.615696
68.630 12.77899
68.635 12.835925
68.640 12.753426
68.645 12.863449
68.650 13.098628
68.655 12.727886
68.660 12.3695
68.665 12.795305
68.670 13.683619
68.675 13.856885
68.680 13.731479
68.685 13.936738
68.690 13.903785
68.695 13.713393
68.700 13.286174
68.705 12.650578
68.710 12.955705
68.715 12.765836
68.720 12.616867
68.725 13.292766
68.730 13.998086
68.735 14.545111
68.740 14.420229
68.745 13.845093
68.750 13.689824
68.755 13.895447
68.760 13.206686
68.765 12.607264
68.770 12.538389
68.775 12.391571
68.780 12.68072
68.785 12.727581
68.790 12.510998
68.795 12.737274
68.800 12.536386
68.805 12.314264
68.810 12.778009
68.815 13.084311
68.820 12.831807
68.825 12.493755
68.830 12.525245
68.835 12.413111
68.840 12.55302
68.845 12.627048
68.850 12.644892
68.855 13.192713
68.860 13.520602
68.865 13.371047
68.870 13.385036
68.875 12.794543
68.880 12.627775
68.885 12.782894
68.890 12.596578
68.895 12.390459
68.900 12.882869
68.905 13.037485
68.910 13.308468
68.915 12.911088
68.920 12.694818
68.925 12.750955
68.930 12.357323
68.935 11.172606
68.940 10.82441
68.945 10.652645
68.950 10.452958
68.955 10.186883
68.960 10.255145
68.965 10.682177
68.970 11.404469
68.975 11.663183
68.980 11.41108
68.985 11.726364
68.990 11.654271
68.995 11.558572
69.000 11.372807
69.005 11.168989
69.010 11.003886
69.015 10.754228
69.020 10.683644
69.025 10.489794
69.030 10.409031
69.035 10.37969
69.040 10.322908
69.045 10.332989
69.050 10.30534
69.055 10.07797
69.060 9.97796
69.065 9.887841
69.070 10.412075
69.075 10.616293
69.080 10.549085
69.085 10.789954
69.090 10.847032
69.095 10.893216
69.100 11.076055
69.105 10.602099
69.110 10.656344
69.115 10.700916
69.120 10.57388
69.125 10.787084
69.130 10.889935
69.135 10.528721
69.140 10.066143
69.145 10.332093
69.150 10.342933
69.155 9.969959
69.160 9.42953
69.165 9.078485
69.170 9.651899
69.175 10.390222
69.180 10.185755
69.185 10.562962
69.190 10.625681
69.195 10.488808
69.200 10.24495
69.205 10.103164
69.210 9.846828
69.215 10.014302
69.220 10.178062
69.225 10.54993
69.230 10.849102
69.235 10.387687
69.240 9.784068
69.245 9.463968
69.250 8.820688
69.255 8.910851
69.260 8.862873
69.265 8.788353
69.270 9.191158
69.275 9.06168
69.280 8.839615
69.285 8.33344
69.290 7.99868
69.295 7.940874
69.300 8.21471
69.305 8.645425
69.310 8.869864
69.315 9.062733
69.320 9.616989
69.325 9.615499
69.330 9.648944
69.335 9.660263
69.340 9.256588
69.345 9.164145
69.350 9.160342
69.355 9.498289
69.360 9.381157
69.365 9.103583
69.370 8.820251
69.375 8.887315
69.380 9.160345
69.385 8.560693
69.390 8.098918
69.395 8.002817
69.400 7.997857
69.405 8.245805
69.410 8.287627
69.415 8.05162
69.420 8.588502
69.425 8.692661
69.430 9.031297
69.435 9.132054
69.440 9.110248
69.445 9.352148
69.450 9.668717
69.455 10.048763
69.460 9.947383
69.465 9.737889
69.470 9.733846
69.475 9.524986
69.480 9.073895
69.485 8.79956
69.490 8.278598
69.495 8.315743
69.500 8.21197
69.505 7.879904
69.510 7.91963
69.515 8.100337
69.520 8.003263
69.525 8.109134
69.530 7.697237
69.535 7.70087
69.540 8.006085
69.545 8.033556
69.550 7.78945
69.555 7.658195
69.560 7.51228
69.565 7.748478
69.570 7.935819
69.575 8.24936
69.580 8.555923
69.585 8.732092
69.590 8.634482
69.595 8.853601
69.600 9.217105
69.605 9.451694
69.610 9.198162
69.615 8.883675
69.620 8.753516
69.625 8.685215
69.630 8.383718
69.635 7.814639
69.640 7.611763
69.645 7.372556
69.650 7.541684
69.655 7.668903
69.660 7.856395
69.665 7.871693
69.670 8.053957
69.675 8.186733
69.680 8.446696
69.685 8.525409
69.690 9.082568
69.695 9.010539
69.700 9.094298
69.705 8.983547
69.710 8.460085
69.715 8.054004
69.720 8.131935
69.725 7.908352
69.730 8.03185
69.735 7.893285
69.740 8.042854
69.745 8.335334
69.750 8.797844
69.755 8.473728
69.760 7.993901
69.765 8.102567
69.770 8.499644
69.775 8.692313
69.780 8.306628
69.785 8.464501
69.790 8.348933
69.795 8.572074
69.800 8.392998
69.805 8.294843
69.810 8.35791
69.815 8.747355
69.820 8.629819
69.825 9.091101
69.830 9.384163
69.835 9.901475
69.840 9.980084
69.845 9.807962
69.850 9.894459
69.855 10.163044
69.860 9.799642
69.865 9.281676
69.870 8.874024
69.875 9.052813
69.880 9.12192
69.885 8.797112
69.890 8.792861
69.895 9.483761
69.900 9.934736
69.905 9.731919
69.910 9.392629
69.915 9.120853
69.920 8.695941
69.925 8.033174
69.930 7.197122
69.935 7.121469
69.940 7.198854
69.945 7.182909
69.950 7.653176
69.955 8.275673
69.960 8.188234
69.965 7.754903
69.970 7.547641
69.975 7.249338
69.980 7.447532
69.985 7.186401
69.990 7.146854
69.995 7.772757
70.000 8.365257
70.005 8.565178
70.010 8.856986
70.015 8.861638
70.020 8.676077
70.025 8.423936
70.030 8.184201
70.035 7.824767
70.040 7.914869
70.045 8.533404
70.050 8.840877
70.055 8.75467
70.060 8.589048
70.065 8.360086
70.070 8.743029
70.075 8.759399
70.080 8.13625
70.085 8.183396
70.090 8.003455
70.095 7.859646
70.100 8.538666
70.105 8.060114
70.110 7.614023
70.115 7.40276
70.120 7.295218
70.125 7.852589
70.130 7.919403
70.135 7.656962
70.140 7.924701
70.145 8.128595
70.150 8.138458
70.155 8.004919
70.160 7.653525
70.165 7.735693
70.170 7.647895
70.175 7.568244
70.180 7.680622
70.185 8.22094
70.190 8.480799
70.195 8.496053
70.200 8.137308
70.205 7.939398
70.210 8.152025
70.215 7.958159
70.220 7.376904
70.225 7.312823
70.230 7.730553
70.235 8.221458
70.240 8.309842
70.245 8.063895
70.250 8.463401
70.255 8.713319
70.260 8.654269
70.265 8.695819
70.270 8.834879
70.275 9.181756
70.280 9.49072
70.285 9.024868
70.290 9.064382
70.295 8.891164
70.300 8.523461
70.305 7.881413
70.310 7.326252
70.315 7.086201
70.320 7.341909
70.325 7.561399
70.330 7.773535
70.335 7.927853
70.340 8.982272
70.345 9.026122
70.350 9.200488
70.355 9.204029
70.360 9.172674
70.365 9.066703
70.370 9.001755
70.375 8.450929
70.380 8.72271
70.385 8.441566
70.390 8.273258
70.395 8.099452
70.400 8.011692
70.405 7.913862
70.410 7.71314
70.415 7.354323
70.420 7.298821
70.425 7.126628
70.430 7.545772
70.435 7.918258
70.440 8.001272
70.445 8.312619
70.450 8.544522
70.455 8.649883
70.460 8.73203
70.465 8.482924
70.470 8.472445
70.475 8.453924
70.480 8.391846
70.485 8.322847
70.490 8.786617
70.495 8.937019
70.500 8.595376
70.505 8.620159
70.510 8.614944
70.515 8.916193
70.520 8.846886
70.525 8.307828
70.530 8.49727
70.535 8.557784
70.540 8.333585
70.545 7.95018
70.550 7.986458
70.555 8.43832
70.560 8.566583
70.565 8.578409
70.570 9.021706
70.575 9.37457
70.580 9.570194
70.585 9.054458
70.590 8.986937
70.595 8.948997
70.600 8.560369
70.605 8.094985
70.610 8.031265
70.615 8.513289
70.620 8.60172
70.625 8.298674
70.630 8.429567
70.635 8.862844
70.640 9.035759
70.645 8.627702
70.650 8.398303
70.655 8.616336
70.660 8.417868
70.665 8.41294
70.670 8.056932
70.675 8.318445
70.680 8.312676
70.685 8.471351
70.690 8.455753
70.695 8.375808
70.700 8.05698
70.705 7.860199
70.710 7.853899
70.715 7.974504
70.720 7.886221
70.725 8.05579
70.730 8.318193
70.735 8.774957
70.740 8.925423
70.745 8.695687
70.750 8.674017
70.755 8.365648
70.760 8.229848
70.765 7.965279
70.770 7.556321
70.775 7.491535
70.780 7.413486
70.785 7.311945
70.790 7.580495
70.795 7.477075
70.800 7.729709
70.805 7.712722
70.810 7.669824
70.815 7.766801
70.820 7.972719
70.825 7.766437
70.830 7.790152
70.835 7.874142
70.840 8.029238
70.845 8.253874
70.850 8.168428
70.855 8.233641
70.860 8.559214
70.865 8.562906
70.870 8.482421
70.875 8.562344
70.880 8.551966
70.885 8.789454
70.890 9.002402
70.895 9.087361
70.900 9.210404
70.905 9.238446
70.910 9.164167
70.915 9.023199
70.920 8.610768
70.925 8.174801
70.930 7.88957
70.935 7.596524
70.940 7.692693
70.945 7.684654
70.950 7.69422
70.955 7.542766
70.960 7.784443
70.965 8.372905
70.970 8.57611
70.975 8.484146
70.980 8.512016
70.985 8.854475
70.990 8.85229
70.995 8.329856
71.000 8.061867
71.005 7.860279
71.010 7.64092
71.015 7.610022
71.020 7.591287
71.025 7.677286
71.030 7.858175
71.035 7.945211
71.040 8.021913
71.045 8.312349
71.050 8.45953
71.055 8.194821
71.060 8.042686
71.065 7.881219
71.070 7.918164
71.075 7.830959
71.080 7.505179
71.085 7.661269
71.090 7.903756
71.095 8.334858
71.100 8.263799
71.105 8.301733
71.110 8.052238
71.115 7.977256
71.120 8.011977
71.125 8.097329
71.130 8.316587
71.135 8.345727
71.140 8.591554
71.145 8.766665
71.150 8.49685
71.155 8.140101
71.160 8.434691
71.165 8.257408
71.170 8.551928
71.175 8.548627
71.180 9.077702
71.185 9.277025
71.190 9.372602
71.195 8.952363
71.200 8.660983
71.205 8.417086
71.210 8.553202
71.215 8.338649
71.220 8.301991
71.225 8.173484
71.230 8.548024
71.235 8.506472
71.240 8.400085
71.245 8.161824
71.250 8.629955
71.255 8.621964
71.260 8.588531
71.265 8.365762
71.270 8.15112
71.275 8.126991
71.280 7.772263
71.285 7.399286
71.290 7.89931
71.295 8.463051
71.300 8.609829
71.305 8.773928
71.310 9.040753
71.315 8.885263
71.320 8.747663
71.325 8.340615
71.330 7.818958
71.335 7.786956
71.340 7.943897
71.345 8.23443
71.350 8.675532
71.355 8.383308
71.360 8.285928
71.365 8.564596
71.370 8.432153
71.375 8.10271
71.380 7.789205
71.385 7.76417
71.390 7.95494
71.395 8.067525
71.400 8.430552
71.405 8.557484
71.410 8.860817
71.415 9.269908
71.420 9.303459
71.425 9.25043
71.430 9.244798
71.435 8.842311
71.440 9.103598
71.445 8.523002
71.450 8.283778
71.455 8.476305
71.460 8.698854
71.465 8.409132
71.470 8.029402
71.475 7.931268
71.480 8.340369
71.485 8.679433
71.490 8.662189
71.495 8.483377
71.500 8.327448
71.505 8.526759
71.510 8.635504
71.515 8.266659
71.520 7.999477
71.525 7.675791
71.530 7.787161
71.535 8.27489
71.540 8.262006
71.545 8.292797
71.550 8.265842
71.555 8.341729
71.560 8.688263
71.565 8.6502
71.570 8.270967
71.575 8.359431
71.580 8.734753
71.585 9.006651
71.590 8.645054
71.595 8.169991
71.600 8.131553
71.605 8.75727
71.610 8.425771
71.615 7.988665
71.620 8.131757
71.625 8.393136
71.630 8.724811
71.635 8.454025
71.640 7.979446
71.645 7.696059
71.650 7.271562
71.655 7.143059
71.660 6.805192
71.665 6.874763
71.670 7.20379
71.675 7.418938
71.680 8.480033
71.685 9.015136
71.690 8.92168
71.695 9.021034
71.700 8.755122
71.705 8.49775
71.710 8.680107
71.715 8.029025
71.720 7.81898
71.725 7.78375
71.730 8.10058
71.735 8.221144
71.740 8.780852
71.745 8.585769
71.750 8.738536
71.755 9.088123
71.760 9.528871
71.765 9.700633
71.770 9.674757
71.775 9.445686
71.780 9.173354
71.785 9.359962
71.790 9.122731
71.795 8.968543
71.800 8.740162
71.805 8.775395
71.810 8.708802
71.815 9.094546
71.820 8.829284
71.825 8.76055
71.830 8.738377
71.835 8.6109
71.840 8.704799
71.845 8.548203
71.850 8.052182
71.855 8.158211
71.860 8.113838
71.865 8.028034
71.870 7.654106
71.875 7.662734
71.880 8.152754
71.885 8.361731
71.890 8.303539
71.895 8.343952
71.900 8.626209
71.905 8.564878
71.910 8.456461
71.915 8.047777
71.920 8.059334
71.925 7.974805
71.930 8.154225
71.935 8.248149
71.940 8.197786
71.945 7.947038
71.950 8.316295
71.955 8.470624
71.960 8.459133
71.965 8.36608
71.970 8.621715
71.975 8.80765
71.980 8.639368
71.985 8.285274
71.990 7.896527
71.995 7.655833
72.000 7.525808
72.005 7.237115
72.010 6.91626
72.015 7.07445
72.020 7.187238
72.025 7.428287
72.030 7.566547
72.035 7.356607
72.040 7.490322
72.045 7.952981
72.050 8.684198
72.055 9.118851
72.060 9.707294
72.065 10.217093
72.070 10.440079
72.075 10.632156
72.080 10.310919
72.085 9.734089
72.090 9.511046
72.095 8.949239
72.100 8.62677
72.105 8.390452
72.110 8.072816
72.115 8.019983
72.120 8.041184
72.125 8.049731
72.130 8.953511
72.135 9.270399
72.140 9.223301
72.145 9.365399
72.150 9.643099
72.155 9.840103
72.160 9.202668
72.165 8.381685
72.170 8.285288
72.175 8.794721
72.180 8.338416
72.185 7.994865
72.190 8.128221
72.195 8.344338
72.200 8.807219
72.205 8.949396
72.210 8.878367
72.215 8.823139
72.220 8.456594
72.225 8.281961
72.230 7.9698
72.235 7.905459
72.240 8.149193
72.245 8.364975
72.250 8.817205
72.255 8.853232
72.260 8.355565
72.265 8.309363
72.270 7.752657
72.275 7.214154
72.280 7.109779
72.285 7.487402
72.290 7.911008
72.295 8.27018
72.300 8.264838
72.305 8.424305
72.310 8.462514
72.315 8.501109
72.320 8.223821
72.325 8.58733
72.330 8.686975
72.335 8.738167
72.340 8.726625
72.345 8.809736
72.350 8.206149
72.355 7.78404
72.360 7.269646
72.365 7.168806
72.370 7.414855
72.375 7.498963
72.380 7.59314
72.385 8.347494
72.390 8.819525
72.395 9.196861
72.400 9.347811
72.405 9.500015
72.410 9.573331
72.415 9.528738
72.420 9.071755
72.425 8.932369
72.430 8.541678
72.435 8.222158
72.440 8.023912
72.445 7.726357
72.450 7.500743
72.455 7.11795
72.460 6.720134
72.465 6.922324
72.470 7.015913
72.475 7.318176
72.480 7.566843
72.485 7.558939
72.490 7.91473
72.495 7.505383
72.500 7.516305
72.505 6.886721
72.510 6.381208
72.515 6.247038
72.520 6.547994
72.525 6.57129
72.530 7.114627
72.535 7.262076
72.540 7.841015
72.545 8.161605
72.550 8.473735
72.555 8.665417
72.560 8.704763
72.565 8.384854
72.570 8.300815
72.575 8.606006
72.580 8.934229
72.585 8.621977
72.590 8.411062
72.595 8.657329
72.600 9.015313
72.605 8.923526
72.610 8.529699
72.615 7.992414
72.620 8.018379
72.625 7.908811
72.630 7.834403
72.635 7.983449
72.640 7.928781
72.645 7.919948
72.650 7.972511
72.655 8.083613
72.660 8.433476
72.665 8.242654
72.670 8.123751
72.675 7.973832
72.680 7.945459
72.685 8.056623
72.690 8.193282
72.695 8.314796
72.700 8.457108
72.705 8.399574
72.710 8.244232
72.715 8.363885
72.720 8.542333
72.725 8.496802
72.730 8.310021
72.735 8.189244
72.740 8.261581
72.745 8.708714
72.750 8.310398
72.755 7.974961
72.760 7.927718
72.765 7.922673
72.770 8.414337
72.775 8.449812
72.780 8.65451
72.785 8.978345
72.790 8.708287
72.795 8.547525
72.800 8.280422
72.805 7.928398
72.810 7.680722
72.815 7.37183
72.820 7.241761
72.825 7.719346
72.830 7.637938
72.835 7.868676
72.840 7.81271
72.845 8.102389
72.850 8.7666
72.855 8.959686
72.860 9.109204
72.865 9.208753
72.870 9.246027
72.875 8.949479
72.880 8.679349
72.885 8.243206
72.890 8.351034
72.895 8.124834
72.900 7.99348
72.905 7.968779
72.910 8.138124
72.915 8.157063
72.920 8.07881
72.925 7.688664
72.930 7.826348
72.935 7.670136
72.940 7.59662
72.945 7.547216
72.950 7.403056
72.955 7.619637
72.960 8.101683
72.965 7.962261
72.970 8.262058
72.975 8.54379
72.980 8.41569
72.985 8.419561
72.990 8.374802
72.995 7.809471
73.000 7.592699
