!@!!GADDS PLOTSO FILE: Chi integration type
!@!!Title/SampleName: map-124
!@!!Comment: ?
!@!!User: Bruker Instrument Administrator
!@!!Site: University of Illinois Chicago
!@!!Frame: map-124_01_000.gfrm
!@!!Wavelengths    1.54184   1.54056   1.54439
!@!!Frame angles: 2Theta: 63.000 Omega: 50.000 Phi: 0.000 Chi: 90.000
!@!!Integration range: 2Theta: 53.000 to 73.000  Gamma: -105.000 to -75.000
!@!!Integration method: bin normalized
!@!N
!@!SS
!@!M
!@!L 0.0 0.0 0.0 0.0
!@!XDegrees
!@!YCounts
53.000 4.221321
53.005 3.960157
53.010 3.712863
53.015 3.438214
53.020 3.646099
53.025 3.656667
53.030 4.013536
53.035 4.537572
53.040 4.649442
53.045 4.627612
53.050 4.850583
53.055 4.707434
53.060 4.839311
53.065 4.801735
53.070 4.604883
53.075 4.746274
53.080 4.93211
53.085 4.791263
53.090 4.704369
53.095 4.522754
53.100 4.5509
53.105 4.461644
53.110 4.258698
53.115 4.062882
53.120 4.365782
53.125 4.567575
53.130 4.523548
53.135 4.572799
53.140 4.947273
53.145 5.462974
53.150 5.59481
53.155 5.481584
53.160 5.40272
53.165 5.010501
53.170 4.92205
53.175 4.852169
53.180 4.34454
53.185 4.313242
53.190 4.551472
53.195 4.782244
53.200 4.930243
53.205 4.825798
53.210 4.721254
53.215 5.127604
53.220 5.170179
53.225 5.085608
53.230 5.268359
53.235 5.579517
53.240 5.761071
53.245 5.755092
53.250 5.358549
53.255 5.173825
53.260 4.941253
53.265 4.552791
53.270 4.356565
53.275 4.434659
53.280 4.458173
53.285 4.48204
53.290 4.535203
53.295 4.743449
53.300 4.930805
53.305 4.819691
53.310 4.581326
53.315 4.491713
53.320 4.461811
53.325 4.453454
53.330 4.535289
53.335 4.539059
53.340 4.561606
53.345 4.502851
53.350 4.597211
53.355 4.67616
53.360 4.839729
53.365 4.95386
53.370 5.020319
53.375 5.319839
53.380 5.343091
53.385 4.980545
53.390 4.835232
53.395 4.748496
53.400 4.87149
53.405 4.606542
53.410 4.239913
53.415 4.089087
53.420 4.080589
53.425 3.951614
53.430 3.651332
53.435 3.353585
53.440 3.492237
53.445 3.872177
53.450 4.168398
53.455 4.49705
53.460 4.739002
53.465 4.871707
53.470 5.112304
53.475 4.944865
53.480 4.665202
53.485 4.751103
53.490 4.907275
53.495 5.074321
53.500 5.134724
53.505 5.209102
53.510 5.438179
53.515 5.589615
53.520 5.641326
53.525 5.329447
53.530 5.373568
53.535 5.260057
53.540 5.314255
53.545 5.202864
53.550 5.032398
53.555 5.198533
53.560 5.277814
53.565 5.249379
53.570 5.332511
53.575 5.114376
53.580 5.33688
53.585 5.360079
53.590 5.31246
53.595 5.27859
53.600 5.227839
53.605 5.057079
53.610 5.239053
53.615 5.242408
53.620 5.109477
53.625 4.908313
53.630 4.526228
53.635 4.367226
53.640 4.315726
53.645 4.001862
53.650 3.676851
53.655 3.599335
53.660 3.7422
53.665 3.780931
53.670 4.062696
53.675 4.3197
53.680 4.510034
53.685 4.617188
53.690 4.510418
53.695 4.13965
53.700 4.241624
53.705 3.849729
53.710 3.895166
53.715 4.066111
53.720 4.076244
53.725 4.360038
53.730 4.458186
53.735 4.536415
53.740 4.698679
53.745 4.433069
53.750 4.400872
53.755 4.589352
53.760 4.722635
53.765 4.744285
53.770 4.856087
53.775 5.026926
53.780 5.142598
53.785 4.880172
53.790 4.897631
53.795 4.957975
53.800 5.133714
53.805 5.001282
53.810 4.767904
53.815 4.828296
53.820 4.898251
53.825 4.798479
53.830 4.776889
53.835 4.857154
53.840 4.886054
53.845 4.908681
53.850 5.029347
53.855 4.995939
53.860 4.654927
53.865 4.801418
53.870 4.715881
53.875 4.740733
53.880 4.809761
53.885 5.018087
53.890 5.315838
53.895 5.766009
53.900 5.589591
53.905 5.900803
53.910 6.049118
53.915 5.765084
53.920 5.494025
53.925 5.36035
53.930 5.098786
53.935 5.24913
53.940 4.822591
53.945 4.747789
53.950 4.738845
53.955 4.63458
53.960 4.626159
53.965 4.678302
53.970 4.636457
53.975 4.552244
53.980 4.539721
53.985 4.818246
53.990 4.915042
53.995 4.533193
54.000 4.214018
54.005 4.517876
54.010 4.862411
54.015 4.841583
54.020 4.939314
54.025 4.875388
54.030 4.913037
54.035 4.869601
54.040 4.330732
54.045 4.275148
54.050 4.290803
54.055 4.340853
54.060 4.621025
54.065 4.665878
54.070 4.665198
54.075 4.783578
54.080 5.039653
54.085 5.365946
54.090 5.559489
54.095 5.461182
54.100 5.33065
54.105 5.402514
54.110 5.336359
54.115 5.062869
54.120 4.522268
54.125 4.361054
54.130 4.373203
54.135 4.676473
54.140 4.79274
54.145 5.039059
54.150 5.195743
54.155 5.580827
54.160 5.662374
54.165 6.144506
54.170 6.428776
54.175 6.320488
54.180 5.775238
54.185 5.602774
54.190 5.328431
54.195 5.481938
54.200 5.104359
54.205 5.089567
54.210 5.58265
54.215 5.887092
54.220 5.968643
54.225 5.83035
54.230 5.602479
54.235 5.65063
54.240 5.251846
54.245 4.822426
54.250 4.745862
54.255 4.811641
54.260 4.873242
54.265 4.853539
54.270 4.591046
54.275 5.021235
54.280 5.07806
54.285 4.886442
54.290 4.800601
54.295 4.9953
54.300 5.395448
54.305 5.393092
54.310 5.350749
54.315 5.493258
54.320 5.693056
54.325 5.36966
54.330 5.004957
54.335 4.805264
54.340 4.688057
54.345 4.705959
54.350 4.788269
54.355 4.837357
54.360 5.114714
54.365 5.227962
54.370 5.433953
54.375 5.643559
54.380 5.490932
54.385 5.573417
54.390 5.7217
54.395 5.725695
54.400 5.616718
54.405 5.223726
54.410 5.162921
54.415 5.365107
54.420 5.064113
54.425 4.789509
54.430 4.827997
54.435 4.974825
54.440 4.874156
54.445 4.880524
54.450 4.958934
54.455 5.014009
54.460 5.352286
54.465 5.25649
54.470 5.097431
54.475 5.01864
54.480 4.814558
54.485 4.37945
54.490 4.207594
54.495 4.220912
54.500 4.304536
54.505 4.416736
54.510 4.435174
54.515 4.533434
54.520 4.807852
54.525 4.745803
54.530 4.533238
54.535 4.362859
54.540 4.605019
54.545 4.963504
54.550 5.155469
54.555 5.409585
54.560 5.482531
54.565 5.568929
54.570 5.691552
54.575 5.469379
54.580 5.216244
54.585 5.348304
54.590 5.460589
54.595 5.479672
54.600 5.527795
54.605 5.554925
54.610 5.593107
54.615 5.43028
54.620 5.045358
54.625 5.05546
54.630 5.086949
54.635 5.305459
54.640 5.278463
54.645 5.313011
54.650 5.185182
54.655 4.99247
54.660 4.931571
54.665 4.72483
54.670 4.363215
54.675 4.275058
54.680 4.325221
54.685 4.438152
54.690 4.562995
54.695 4.263378
54.700 4.370907
54.705 4.716521
54.710 5.002625
54.715 5.012662
54.720 4.88663
54.725 4.745261
54.730 4.874151
54.735 4.72494
54.740 4.522656
54.745 4.617628
54.750 4.537811
54.755 4.791749
54.760 5.052797
54.765 4.919374
54.770 4.947377
54.775 4.870229
54.780 4.641109
54.785 4.82808
54.790 4.658391
54.795 4.615201
54.800 4.618941
54.805 4.722353
54.810 4.588022
54.815 4.976944
54.820 4.917455
54.825 5.121975
54.830 5.55513
54.835 6.157938
54.840 6.273789
54.845 6.475339
54.850 6.234651
54.855 6.173537
54.860 5.860762
54.865 5.173951
54.870 4.697301
54.875 4.631352
54.880 4.348446
54.885 4.258745
54.890 4.059185
54.895 4.070892
54.900 4.163839
54.905 4.227318
54.910 4.300467
54.915 4.705941
54.920 4.999122
54.925 5.056051
54.930 5.337831
54.935 5.449947
54.940 5.565454
54.945 5.446975
54.950 5.350646
54.955 5.273666
54.960 5.409555
54.965 5.369802
54.970 5.5552
54.975 5.505213
54.980 5.53233
54.985 5.348391
54.990 5.203
54.995 5.284266
55.000 5.598596
55.005 5.923333
55.010 5.997478
55.015 5.800527
55.020 6.054655
55.025 6.018262
55.030 5.690033
55.035 5.083535
55.040 4.699096
55.045 4.510873
55.050 4.546495
55.055 4.75463
55.060 4.815139
55.065 5.079281
55.070 5.208393
55.075 5.404989
55.080 5.420061
55.085 5.115524
55.090 5.067509
55.095 5.450106
55.100 5.284641
55.105 5.035324
55.110 4.987312
55.115 5.353705
55.120 5.642878
55.125 5.538452
55.130 5.319622
55.135 5.300054
55.140 5.311345
55.145 5.184232
55.150 5.03763
55.155 4.835521
55.160 4.595515
55.165 4.585845
55.170 5.083424
55.175 5.6209
55.180 5.736787
55.185 5.920205
55.190 5.922273
55.195 6.207129
55.200 6.406518
55.205 6.050164
55.210 5.897649
55.215 6.057688
55.220 6.095429
55.225 6.193954
55.230 6.081558
55.235 5.81206
55.240 5.896233
55.245 5.887544
55.250 5.288141
55.255 5.081154
55.260 4.891985
55.265 4.992254
55.270 4.934556
55.275 4.706289
55.280 4.652352
55.285 4.915878
55.290 5.028044
55.295 4.917058
55.300 4.677786
55.305 4.661482
55.310 4.559937
55.315 4.579296
55.320 4.503302
55.325 4.839769
55.330 5.089998
55.335 5.319652
55.340 5.505123
55.345 5.686529
55.350 5.902024
55.355 6.146328
55.360 5.821681
55.365 5.921468
55.370 6.10116
55.375 6.299595
55.380 6.232342
55.385 6.157523
55.390 5.839296
55.395 5.938528
55.400 5.788076
55.405 5.510947
55.410 5.188846
55.415 5.333843
55.420 5.152832
55.425 5.338718
55.430 5.074598
55.435 4.844082
55.440 4.795347
55.445 5.023603
55.450 4.991588
55.455 5.093672
55.460 5.406499
55.465 5.308685
55.470 5.26032
55.475 5.279227
55.480 5.228085
55.485 5.197456
55.490 5.159173
55.495 5.084671
55.500 5.254646
55.505 5.67706
55.510 5.434044
55.515 5.246153
55.520 5.15631
55.525 4.952013
55.530 4.903369
55.535 5.189463
55.540 4.89078
55.545 4.88303
55.550 4.965417
55.555 5.309839
55.560 5.62382
55.565 5.759511
55.570 5.598413
55.575 5.681268
55.580 5.648655
55.585 5.619261
55.590 5.194611
55.595 5.02971
55.600 4.915189
55.605 4.699979
55.610 4.719341
55.615 4.853193
55.620 4.910432
55.625 4.965964
55.630 4.981764
55.635 4.839683
55.640 5.086452
55.645 5.079943
55.650 5.113554
55.655 5.24868
55.660 5.559799
55.665 5.594302
55.670 5.552916
55.675 5.468861
55.680 5.619697
55.685 5.524089
55.690 5.199859
55.695 4.984023
55.700 4.835602
55.705 5.044303
55.710 5.346632
55.715 5.441203
55.720 5.789585
55.725 5.715308
55.730 5.709259
55.735 5.953706
55.740 5.859073
55.745 5.586507
55.750 5.27704
55.755 5.170577
55.760 5.652109
55.765 6.036844
55.770 6.308626
55.775 6.076099
55.780 6.232202
55.785 6.456126
55.790 6.363564
55.795 6.307525
55.800 6.083202
55.805 5.791029
55.810 6.149037
55.815 6.19523
55.820 6.117087
55.825 6.032256
55.830 5.711635
55.835 5.626482
55.840 5.598481
55.845 5.537334
55.850 5.736394
55.855 5.418309
55.860 5.284272
55.865 5.307021
55.870 5.582768
55.875 5.516048
55.880 5.363394
55.885 5.120982
55.890 5.55215
55.895 5.764455
55.900 5.818914
55.905 5.567026
55.910 6.265588
55.915 6.747326
55.920 6.726477
55.925 6.444505
55.930 6.241208
55.935 6.219064
55.940 6.270833
55.945 6.07579
55.950 6.161118
55.955 6.299736
55.960 6.515898
55.965 6.738268
55.970 7.14849
55.975 7.279622
55.980 6.892241
55.985 6.397705
55.990 6.190363
55.995 6.221025
56.000 6.281751
56.005 5.943323
56.010 5.697562
56.015 5.570332
56.020 5.620404
56.025 5.696844
56.030 5.641841
56.035 5.512013
56.040 5.883457
56.045 5.947421
56.050 5.948501
56.055 5.896543
56.060 6.024187
56.065 6.22843
56.070 5.990926
56.075 5.725399
56.080 5.80879
56.085 6.42713
56.090 6.559881
56.095 6.434484
56.100 5.99832
56.105 5.979079
56.110 6.062613
56.115 6.004134
56.120 5.13213
56.125 5.240805
56.130 5.517975
56.135 5.764917
56.140 5.461867
56.145 5.062675
56.150 4.901272
56.155 5.304286
56.160 4.949444
56.165 4.875757
56.170 5.036814
56.175 5.401583
56.180 5.29983
56.185 5.524344
56.190 5.605965
56.195 5.435568
56.200 5.187136
56.205 5.204869
56.210 5.152525
56.215 5.099513
56.220 5.112157
56.225 5.073607
56.230 5.538163
56.235 5.933312
56.240 6.142064
56.245 6.634613
56.250 6.947317
56.255 7.003767
56.260 7.131517
56.265 6.842784
56.270 6.681828
56.275 6.18455
56.280 5.939931
56.285 5.900513
56.290 5.955523
56.295 5.8152
56.300 5.951079
56.305 5.557693
56.310 5.827682
56.315 5.818884
56.320 5.60233
56.325 5.478286
56.330 5.724686
56.335 5.577308
56.340 5.681883
56.345 5.665488
56.350 5.957768
56.355 5.775818
56.360 5.534688
56.365 5.44207
56.370 5.465196
56.375 5.707506
56.380 5.691298
56.385 5.554228
56.390 5.485062
56.395 5.603373
56.400 5.767733
56.405 5.965895
56.410 5.749222
56.415 5.490372
56.420 5.610796
56.425 5.844369
56.430 6.017457
56.435 5.922305
56.440 5.733949
56.445 5.850266
56.450 5.813191
56.455 5.828202
56.460 5.907558
56.465 5.701544
56.470 5.749032
56.475 5.890186
56.480 5.93424
56.485 5.763247
56.490 6.025248
56.495 6.165326
56.500 6.442744
56.505 6.674282
56.510 6.653172
56.515 6.864522
56.520 7.005939
56.525 6.465739
56.530 5.981747
56.535 5.638571
56.540 5.604946
56.545 5.63947
56.550 5.588764
56.555 5.742188
56.560 5.788921
56.565 6.358325
56.570 6.25926
56.575 6.14128
56.580 6.193003
56.585 6.210415
56.590 6.288607
56.595 6.513535
56.600 6.394722
56.605 6.802094
56.610 6.757475
56.615 6.73343
56.620 6.491362
56.625 6.361973
56.630 6.266653
56.635 6.335393
56.640 6.531672
56.645 6.480393
56.650 6.51364
56.655 6.520802
56.660 6.589484
56.665 6.701909
56.670 6.250822
56.675 5.653156
56.680 5.671391
56.685 5.797166
56.690 5.765179
56.695 5.45211
56.700 5.636984
56.705 5.905412
56.710 6.090429
56.715 5.861532
56.720 5.81317
56.725 5.996695
56.730 6.173722
56.735 6.044584
56.740 5.953804
56.745 5.926197
56.750 5.714479
56.755 5.928297
56.760 6.036969
56.765 5.933989
56.770 5.972888
56.775 6.082372
56.780 6.18412
56.785 6.380486
56.790 6.163892
56.795 5.966659
56.800 5.979575
56.805 6.115993
56.810 6.059201
56.815 5.850356
56.820 5.785901
56.825 6.101921
56.830 6.324919
56.835 6.295309
56.840 5.918864
56.845 6.279183
56.850 6.630086
56.855 6.693598
56.860 6.429912
56.865 6.25498
56.870 6.350635
56.875 6.516497
56.880 6.328417
56.885 6.220418
56.890 6.056893
56.895 5.975664
56.900 5.955602
56.905 5.956766
56.910 5.789771
56.915 5.79781
56.920 5.823992
56.925 5.917078
56.930 5.813992
56.935 6.033891
56.940 6.11573
56.945 6.047773
56.950 6.053503
56.955 6.284579
56.960 6.393823
56.965 6.439715
56.970 6.304367
56.975 6.124208
56.980 6.099931
56.985 5.78837
56.990 5.458121
56.995 5.146208
57.000 4.940802
57.005 5.173249
57.010 5.519925
57.015 5.716121
57.020 5.845763
57.025 6.25888
57.030 6.665641
57.035 6.688358
57.040 6.469314
57.045 6.247431
57.050 5.967464
57.055 5.989945
57.060 5.769381
57.065 5.643856
57.070 5.95384
57.075 6.330083
57.080 6.795696
57.085 7.11118
57.090 7.298076
57.095 7.331706
57.100 7.489744
57.105 6.962348
57.110 6.479502
57.115 6.356374
57.120 6.382351
57.125 6.239545
57.130 6.04972
57.135 6.188667
57.140 6.404043
57.145 6.418737
57.150 6.120978
57.155 5.894774
57.160 6.109207
57.165 6.531642
57.170 6.475023
57.175 6.300343
57.180 6.231523
57.185 6.293017
57.190 6.265514
57.195 5.970815
57.200 5.848914
57.205 6.093169
57.210 6.366125
57.215 6.389304
57.220 6.47124
57.225 6.350624
57.230 6.134719
57.235 5.875339
57.240 5.461422
57.245 6.130702
57.250 6.148957
57.255 6.355487
57.260 6.833295
57.265 7.031447
57.270 7.051458
57.275 7.467199
57.280 7.36258
57.285 7.296046
57.290 7.005156
57.295 6.68201
57.300 7.124243
57.305 7.343131
57.310 6.612513
57.315 6.297549
57.320 6.2978
57.325 6.327543
57.330 6.263236
57.335 5.865089
57.340 5.88389
57.345 6.160089
57.350 6.122908
57.355 6.239984
57.360 6.221102
57.365 6.670784
57.370 7.06702
57.375 7.367832
57.380 7.27364
57.385 7.458477
57.390 7.526054
57.395 7.748719
57.400 7.213982
57.405 6.802457
57.410 6.766561
57.415 6.872478
57.420 6.684581
57.425 6.445907
57.430 6.128229
57.435 6.219849
57.440 6.27054
57.445 6.16832
57.450 6.202543
57.455 6.104654
57.460 6.012408
57.465 6.297915
57.470 6.445509
57.475 6.335164
57.480 6.623932
57.485 6.710161
57.490 7.033717
57.495 7.39423
57.500 7.279495
57.505 7.154342
57.510 6.963238
57.515 6.386311
57.520 5.995964
57.525 5.72858
57.530 5.667401
57.535 5.840759
57.540 6.038367
57.545 6.010202
57.550 6.152377
57.555 6.576866
57.560 6.789693
57.565 6.856003
57.570 6.821771
57.575 6.710078
57.580 6.998355
57.585 7.116428
57.590 7.070282
57.595 6.966843
57.600 6.812472
57.605 6.308637
57.610 6.053837
57.615 5.994006
57.620 6.12821
57.625 6.000682
57.630 6.343631
57.635 6.298838
57.640 6.499673
57.645 6.604677
57.650 6.48275
57.655 6.209121
57.660 6.127301
57.665 5.863005
57.670 5.895048
57.675 6.184271
57.680 6.207428
57.685 6.251716
57.690 6.715315
57.695 7.134271
57.700 7.189664
57.705 7.131365
57.710 7.07486
57.715 7.179193
57.720 7.360035
57.725 6.940924
57.730 7.172605
57.735 7.100743
57.740 7.343244
57.745 7.149263
57.750 7.120328
57.755 6.833131
57.760 6.65802
57.765 6.571969
57.770 6.765687
57.775 6.930096
57.780 7.149448
57.785 7.480338
57.790 7.624243
57.795 7.577296
57.800 7.661382
57.805 7.701759
57.810 7.456182
57.815 7.298323
57.820 6.933961
57.825 7.028551
57.830 7.029657
57.835 6.565081
57.840 6.318102
57.845 6.363359
57.850 6.741276
57.855 7.050086
57.860 6.915078
57.865 6.973218
57.870 7.188795
57.875 7.203347
57.880 6.917712
57.885 6.327823
57.890 6.079896
57.895 5.876838
57.900 5.929417
57.905 5.906106
57.910 6.235862
57.915 6.33954
57.920 6.322226
57.925 6.590697
57.930 6.849556
57.935 6.640115
57.940 6.762269
57.945 6.815297
57.950 7.243197
57.955 7.540006
57.960 7.271433
57.965 7.128974
57.970 6.858409
57.975 6.487745
57.980 6.246871
57.985 6.112173
57.990 6.040046
57.995 6.327064
58.000 6.240517
58.005 6.249557
58.010 6.06614
58.015 6.091383
58.020 6.03977
58.025 5.722991
58.030 5.69234
58.035 6.019788
58.040 6.50667
58.045 6.658066
58.050 6.671941
58.055 6.717354
58.060 6.992403
58.065 7.136214
58.070 6.862461
58.075 6.602593
58.080 6.380902
58.085 6.573173
58.090 6.955029
58.095 7.358551
58.100 7.246548
58.105 7.055522
58.110 7.261703
58.115 7.845189
58.120 7.888042
58.125 7.735486
58.130 7.42279
58.135 7.344407
58.140 7.303731
58.145 6.934958
58.150 6.523913
58.155 6.132789
58.160 6.056576
58.165 6.155968
58.170 6.46388
58.175 6.704399
58.180 6.698679
58.185 6.641865
58.190 6.40868
58.195 6.045392
58.200 6.032758
58.205 5.914929
58.210 6.14229
58.215 6.298878
58.220 6.457042
58.225 6.525601
58.230 6.487623
58.235 6.487469
58.240 6.837961
58.245 6.922611
58.250 6.940147
58.255 7.075533
58.260 7.494068
58.265 7.887141
58.270 8.369965
58.275 8.321689
58.280 8.643966
58.285 9.044922
58.290 9.125213
58.295 9.382782
58.300 9.218436
58.305 8.525366
58.310 8.503707
58.315 8.370831
58.320 8.044374
58.325 7.835444
58.330 7.296684
58.335 7.235137
58.340 7.329947
58.345 7.317575
58.350 7.35092
58.355 7.729114
58.360 7.893935
58.365 8.24887
58.370 8.247854
58.375 8.337951
58.380 8.116828
58.385 7.900679
58.390 7.790911
58.395 7.662466
58.400 7.689855
58.405 7.609476
58.410 7.729056
58.415 7.891184
58.420 8.358721
58.425 8.305803
58.430 8.48348
58.435 8.525137
58.440 8.604616
58.445 8.516714
58.450 8.393282
58.455 7.827057
58.460 8.166177
58.465 8.310802
58.470 8.417326
58.475 8.716868
58.480 9.119419
58.485 9.609112
58.490 9.862034
58.495 10.15268
58.500 10.219728
58.505 10.108717
58.510 10.132147
58.515 10.122505
58.520 9.904552
58.525 9.668983
58.530 9.222135
58.535 9.17813
58.540 9.519696
58.545 9.546333
58.550 9.54742
58.555 10.176558
58.560 10.576124
58.565 10.866639
58.570 11.512245
58.575 11.762367
58.580 11.736204
58.585 11.813901
58.590 11.124965
58.595 10.934088
58.600 10.874029
58.605 10.332129
58.610 10.319595
58.615 10.504791
58.620 10.840882
58.625 10.945688
58.630 10.715622
58.635 10.299422
58.640 10.548467
58.645 10.005592
58.650 9.829353
58.655 9.709737
58.660 10.626587
58.665 11.27838
58.670 11.509012
58.675 11.679732
58.680 11.918651
58.685 11.797963
58.690 11.813203
58.695 11.775181
58.700 11.966982
58.705 11.939828
58.710 11.679137
58.715 11.829517
58.720 11.916
58.725 12.030221
58.730 11.837425
58.735 11.493634
58.740 11.640079
58.745 11.693978
58.750 11.559137
58.755 11.371483
58.760 11.244954
58.765 11.022856
58.770 11.091182
58.775 10.794332
58.780 10.592995
58.785 10.764318
58.790 10.856612
58.795 11.1324
58.800 11.145156
58.805 11.355129
58.810 11.441318
58.815 11.749462
58.820 11.400784
58.825 11.004728
58.830 10.631198
58.835 10.226131
58.840 9.647475
58.845 9.29348
58.850 8.66592
58.855 8.64146
58.860 8.860594
58.865 8.914977
58.870 8.475216
58.875 8.420341
58.880 8.128765
58.885 8.442198
58.890 8.633459
58.895 8.276862
58.900 8.365968
58.905 8.391872
58.910 8.512881
58.915 8.975472
58.920 8.68779
58.925 8.514387
58.930 8.531907
58.935 8.602126
58.940 8.698196
58.945 8.942019
58.950 9.060838
58.955 9.407391
58.960 9.276603
58.965 9.103813
58.970 8.843793
58.975 9.225608
58.980 8.785246
58.985 8.304
58.990 8.165921
58.995 8.323712
59.000 8.367599
59.005 8.49792
59.010 8.474543
59.015 8.752656
59.020 8.729931
59.025 8.717996
59.030 8.302341
59.035 8.029154
59.040 7.657004
59.045 6.84794
59.050 6.45384
59.055 6.65957
59.060 6.784283
59.065 7.170779
59.070 7.354726
59.075 7.754552
59.080 8.775971
59.085 8.915794
59.090 8.617161
59.095 8.41466
59.100 8.188211
59.105 8.17882
59.110 8.007316
59.115 7.250332
59.120 7.346913
59.125 7.393841
59.130 7.70857
59.135 7.860953
59.140 7.6671
59.145 7.488825
59.150 7.357848
59.155 7.01008
59.160 6.876079
59.165 6.627652
59.170 6.575186
59.175 6.809168
59.180 6.807946
59.185 7.354004
59.190 8.066153
59.195 8.049578
59.200 8.031122
59.205 7.956048
59.210 8.308246
59.215 8.613303
59.220 8.254153
59.225 7.827518
59.230 8.001648
59.235 8.108636
59.240 8.081682
59.245 7.786147
59.250 7.858984
59.255 7.711332
59.260 7.627951
59.265 7.558282
59.270 7.240664
59.275 7.05823
59.280 6.926378
59.285 6.861454
59.290 7.084389
59.295 7.05234
59.300 7.103407
59.305 7.504853
59.310 7.651127
59.315 7.552714
59.320 7.435983
59.325 7.429319
59.330 7.534437
59.335 7.511634
59.340 7.333145
59.345 7.459507
59.350 7.788635
59.355 7.931118
59.360 7.961888
59.365 8.134562
59.370 8.017395
59.375 8.037751
59.380 7.915924
59.385 7.847303
59.390 8.010056
59.395 8.431465
59.400 8.567162
59.405 8.58256
59.410 8.595173
59.415 8.551381
59.420 7.9471
59.425 7.697512
59.430 7.133529
59.435 7.023051
59.440 7.211255
59.445 7.170874
59.450 7.238694
59.455 7.736016
59.460 7.292157
59.465 7.37766
59.470 7.136735
59.475 6.998356
59.480 6.815372
59.485 6.786367
59.490 6.576727
59.495 6.787858
59.500 6.838171
59.505 7.174198
59.510 7.311408
59.515 7.383807
59.520 7.50527
59.525 7.483337
59.530 7.20892
59.535 7.253575
59.540 7.316113
59.545 7.227859
59.550 7.499219
59.555 7.105693
59.560 7.062929
59.565 7.279599
59.570 7.098785
59.575 6.739996
59.580 6.693901
59.585 6.108915
59.590 6.371241
59.595 6.600464
59.600 6.802372
59.605 7.014587
59.610 7.331496
59.615 7.315217
59.620 7.366109
59.625 7.41861
59.630 7.466853
59.635 7.040472
59.640 6.781876
59.645 6.384947
59.650 6.466186
59.655 6.520399
59.660 6.493557
59.665 6.647226
59.670 7.008842
59.675 6.86602
59.680 6.809954
59.685 6.634844
59.690 6.701355
59.695 6.560457
59.700 6.659919
59.705 6.546539
59.710 6.850163
59.715 7.226962
59.720 7.636093
59.725 7.710505
59.730 7.70227
59.735 7.730559
59.740 7.988313
59.745 7.979558
59.750 7.990247
59.755 8.053793
59.760 8.28021
59.765 8.383037
59.770 8.335776
59.775 8.158042
59.780 7.909429
59.785 7.724927
59.790 7.491734
59.795 7.117945
59.800 7.04559
59.805 6.64706
59.810 6.812484
59.815 7.195177
59.820 7.44409
59.825 7.359715
59.830 7.515964
59.835 7.410125
59.840 7.786152
59.845 7.474427
59.850 6.975304
59.855 6.675311
59.860 6.661943
59.865 6.639907
59.870 6.718326
59.875 6.408419
59.880 6.44203
59.885 6.470495
59.890 6.651146
59.895 6.404308
59.900 6.06452
59.905 5.974778
59.910 5.737479
59.915 5.72395
59.920 5.858652
59.925 5.859199
59.930 6.266932
59.935 6.484726
59.940 6.39439
59.945 6.204678
59.950 5.951613
59.955 6.197167
59.960 6.188077
59.965 6.073928
59.970 5.834601
59.975 5.590433
59.980 5.451847
59.985 5.512621
59.990 5.450706
59.995 5.52307
60.000 5.723205
60.005 5.908903
60.010 6.383521
60.015 6.64744
60.020 6.621398
60.025 6.76171
60.030 6.888397
60.035 6.923154
60.040 7.142808
60.045 7.807303
60.050 8.191197
60.055 8.146724
60.060 7.718607
60.065 7.374903
60.070 7.365709
60.075 6.969189
60.080 6.020758
60.085 5.928022
60.090 6.126867
60.095 6.180134
60.100 6.224103
60.105 6.429755
60.110 6.878337
60.115 7.271598
60.120 7.709929
60.125 7.91683
60.130 7.914099
60.135 8.130015
60.140 8.161733
60.145 7.842886
60.150 7.515861
60.155 7.383328
60.160 7.172099
60.165 7.129975
60.170 6.581688
60.175 6.339302
60.180 6.511378
60.185 6.678706
60.190 6.306174
60.195 6.54795
60.200 6.62287
60.205 7.078869
60.210 7.27328
60.215 7.508674
60.220 7.953961
60.225 8.303573
60.230 8.093022
60.235 7.895333
60.240 7.930013
60.245 7.882523
60.250 7.623979
60.255 7.170162
60.260 6.931889
60.265 7.407336
60.270 7.771669
60.275 7.686256
60.280 7.74058
60.285 7.613571
60.290 7.643149
60.295 7.696407
60.300 7.211914
60.305 6.979367
60.310 6.872076
60.315 6.849126
60.320 6.985083
60.325 7.326499
60.330 7.317999
60.335 7.533872
60.340 7.89547
60.345 7.996389
60.350 7.841361
60.355 7.615683
60.360 7.537745
60.365 7.768314
60.370 7.443131
60.375 7.21283
60.380 7.138653
60.385 7.082576
60.390 7.550689
60.395 7.584607
60.400 7.538795
60.405 7.754377
60.410 7.809286
60.415 7.808076
60.420 7.819087
60.425 7.554354
60.430 7.245301
60.435 6.885684
60.440 6.449937
60.445 6.299914
60.450 6.471953
60.455 6.520313
60.460 6.331192
60.465 6.618944
60.470 6.937505
60.475 7.467616
60.480 7.501228
60.485 7.613528
60.490 7.786105
60.495 7.6658
60.500 7.233988
60.505 7.503266
60.510 7.264955
60.515 7.428917
60.520 7.370704
60.525 7.25868
60.530 7.524735
60.535 7.85511
60.540 7.652585
60.545 7.643953
60.550 7.206803
60.555 7.073734
60.560 7.115979
60.565 6.816775
60.570 6.588663
60.575 6.559725
60.580 6.812252
60.585 7.142188
60.590 6.965349
60.595 7.00318
60.600 7.332523
60.605 7.504147
60.610 7.406745
60.615 7.003367
60.620 6.966011
60.625 6.824101
60.630 6.532086
60.635 6.284755
60.640 5.976592
60.645 5.932306
60.650 6.241466
60.655 6.163141
60.660 7.005969
60.665 7.51634
60.670 8.054722
60.675 8.182386
60.680 8.113936
60.685 8.003798
60.690 7.873026
60.695 7.314245
60.700 7.015615
60.705 6.960217
60.710 7.285654
60.715 7.46382
60.720 7.362483
60.725 7.566319
60.730 7.821613
60.735 7.898671
60.740 7.730045
60.745 7.371763
60.750 7.390279
60.755 7.39081
60.760 6.936939
60.765 6.698008
60.770 6.539965
60.775 6.542206
60.780 6.788368
60.785 6.771062
60.790 6.97538
60.795 6.947681
60.800 6.621808
60.805 6.69225
60.810 6.285623
60.815 6.018054
60.820 6.3157
60.825 6.697113
60.830 7.233707
60.835 7.568561
60.840 7.436574
60.845 7.66462
60.850 7.661293
60.855 7.352746
60.860 7.222956
60.865 7.161728
60.870 7.347148
60.875 7.623332
60.880 8.019847
60.885 8.146317
60.890 8.001485
60.895 8.005148
60.900 7.888586
60.905 7.5754
60.910 7.386693
60.915 6.666975
60.920 6.564265
60.925 6.391918
60.930 6.160098
60.935 6.252896
60.940 6.631222
60.945 6.565361
60.950 6.851893
60.955 6.993268
60.960 7.337356
60.965 7.57527
60.970 7.588876
60.975 7.052495
60.980 7.531582
60.985 7.517105
60.990 7.34543
60.995 7.066193
61.000 6.804196
61.005 6.897012
61.010 7.370778
61.015 7.042868
61.020 7.15125
61.025 7.258313
61.030 7.516327
61.035 7.964506
61.040 7.948769
61.045 7.58912
61.050 7.490154
61.055 7.248167
61.060 7.064653
61.065 6.779767
61.070 6.416748
61.075 6.391623
61.080 6.654753
61.085 6.742448
61.090 6.791689
61.095 7.070629
61.100 7.152934
61.105 7.193559
61.110 6.693107
61.115 6.676935
61.120 6.822237
61.125 7.23042
61.130 7.16267
61.135 7.078461
61.140 7.437839
61.145 7.836637
61.150 7.829951
61.155 7.687009
61.160 7.394933
61.165 7.245413
61.170 7.302675
61.175 7.075718
61.180 6.99956
61.185 6.837278
61.190 6.921433
61.195 6.823726
61.200 7.100487
61.205 7.294256
61.210 7.432475
61.215 7.694375
61.220 7.92134
61.225 8.351693
61.230 8.514939
61.235 8.539549
61.240 8.471672
61.245 8.470558
61.250 8.282478
61.255 8.094767
61.260 7.666817
61.265 7.827703
61.270 7.751669
61.275 7.483707
61.280 7.210328
61.285 7.230339
61.290 7.549459
61.295 7.800935
61.300 7.550994
61.305 7.89661
61.310 8.038286
61.315 8.343179
61.320 8.197488
61.325 7.883508
61.330 7.800155
61.335 7.820632
61.340 7.462852
61.345 7.271338
61.350 7.334137
61.355 7.454972
61.360 7.269186
61.365 7.098346
61.370 7.279696
61.375 7.317647
61.380 7.273218
61.385 7.113313
61.390 7.454075
61.395 7.927324
61.400 8.064581
61.405 8.172544
61.410 8.510675
61.415 8.675231
61.420 8.640265
61.425 8.436235
61.430 8.464684
61.435 8.490761
61.440 8.110489
61.445 7.867408
61.450 7.924432
61.455 7.962101
61.460 7.76264
61.465 7.374505
61.470 7.538286
61.475 7.924543
61.480 8.095255
61.485 8.017619
61.490 7.9058
61.495 8.24257
61.500 8.329296
61.505 8.315372
61.510 8.119359
61.515 8.109386
61.520 8.349137
61.525 8.465221
61.530 8.527654
61.535 8.664055
61.540 8.820554
61.545 8.94243
61.550 8.919567
61.555 9.109628
61.560 9.382414
61.565 9.142229
61.570 8.728033
61.575 8.341945
61.580 8.253123
61.585 7.966975
61.590 7.652675
61.595 7.479432
61.600 7.56008
61.605 7.785476
61.610 7.513166
61.615 7.081076
61.620 7.440185
61.625 7.709943
61.630 7.655532
61.635 7.419169
61.640 7.427714
61.645 7.895686
61.650 8.078487
61.655 7.674493
61.660 7.349357
61.665 7.459142
61.670 7.660872
61.675 7.770409
61.680 7.63602
61.685 7.633538
61.690 8.088333
61.695 8.144444
61.700 8.128444
61.705 8.466735
61.710 8.290304
61.715 8.264587
61.720 8.228612
61.725 8.101064
61.730 8.09007
61.735 7.886118
61.740 7.685594
61.745 7.679303
61.750 7.497684
61.755 7.527083
61.760 7.391957
61.765 7.355443
61.770 7.537234
61.775 7.571467
61.780 7.478704
61.785 7.53959
61.790 7.839461
61.795 8.171654
61.800 8.1602
61.805 7.859185
61.810 7.792457
61.815 7.721478
61.820 7.314724
61.825 6.830776
61.830 6.4989
61.835 6.822785
61.840 7.287068
61.845 7.380449
61.850 7.735454
61.855 8.431698
61.860 8.992017
61.865 9.534416
61.870 9.569789
61.875 9.346266
61.880 9.573151
61.885 9.673669
61.890 9.232196
61.895 8.479768
61.900 7.896491
61.905 7.332209
61.910 7.021369
61.915 6.61615
61.920 6.572423
61.925 6.723562
61.930 7.01159
61.935 7.053451
61.940 7.494995
61.945 7.643889
61.950 7.588836
61.955 7.480772
61.960 7.335927
61.965 7.25939
61.970 7.290008
61.975 7.162707
61.980 7.06535
61.985 7.303883
61.990 7.554595
61.995 8.017837
62.000 8.439883
62.005 8.334359
62.010 8.201066
62.015 8.260765
62.020 8.382275
62.025 8.195403
62.030 7.618892
62.035 7.791856
62.040 8.023231
62.045 8.667902
62.050 8.671618
62.055 8.371994
62.060 8.614875
62.065 8.582508
62.070 8.237035
62.075 8.121067
62.080 7.272347
62.085 7.212011
62.090 6.955097
62.095 6.535003
62.100 6.964484
62.105 6.867799
62.110 6.730438
62.115 7.277169
62.120 7.60015
62.125 8.385778
62.130 8.924827
62.135 8.875333
62.140 8.842172
62.145 9.001104
62.150 8.736768
62.155 8.445701
62.160 8.351978
62.165 8.415097
62.170 8.644463
62.175 8.699966
62.180 8.74266
62.185 8.663897
62.190 8.766356
62.195 8.481119
62.200 8.198541
62.205 8.186746
62.210 8.280854
62.215 8.624976
62.220 8.621675
62.225 8.286398
62.230 8.36804
62.235 8.081054
62.240 7.82953
62.245 7.680363
62.250 7.367564
62.255 7.402439
62.260 8.128185
62.265 8.198647
62.270 8.091178
62.275 7.897791
62.280 7.659636
62.285 7.605905
62.290 7.595957
62.295 7.369802
62.300 7.334533
62.305 7.358167
62.310 7.973095
62.315 7.833493
62.320 7.754827
62.325 7.846042
62.330 7.747414
62.335 7.682168
62.340 7.980032
62.345 7.858803
62.350 8.287633
62.355 8.584347
62.360 8.460511
62.365 8.508923
62.370 8.710683
62.375 8.464094
62.380 8.871584
62.385 9.190146
62.390 9.150287
62.395 9.244521
62.400 8.955719
62.405 8.91578
62.410 9.15073
62.415 8.470253
62.420 8.272156
62.425 8.074086
62.430 7.938188
62.435 7.915856
62.440 7.847884
62.445 7.917634
62.450 8.175447
62.455 7.97966
62.460 7.837047
62.465 7.980494
62.470 8.031551
62.475 7.929885
62.480 8.107187
62.485 7.818923
62.490 8.268723
62.495 8.47763
62.500 8.257752
62.505 8.033361
62.510 7.796743
62.515 7.944464
62.520 8.186563
62.525 8.068925
62.530 8.18444
62.535 8.30569
62.540 8.684354
62.545 8.791265
62.550 8.422359
62.555 8.26631
62.560 7.920948
62.565 7.762143
62.570 7.661775
62.575 7.616388
62.580 7.514939
62.585 7.59339
62.590 7.020546
62.595 7.030446
62.600 6.855874
62.605 6.999117
62.610 6.995159
62.615 6.991601
62.620 6.793013
62.625 7.312429
62.630 7.680562
62.635 7.861602
62.640 8.105217
62.645 8.109946
62.650 8.453668
62.655 8.393556
62.660 8.509134
62.665 8.283669
62.670 8.378929
62.675 8.539927
62.680 8.519161
62.685 8.351315
62.690 8.837373
62.695 9.180832
62.700 9.189627
62.705 8.823226
62.710 8.628811
62.715 8.85738
62.720 8.916061
62.725 8.302214
62.730 8.300426
62.735 8.896471
62.740 9.191525
62.745 9.170853
62.750 8.689729
62.755 8.904844
62.760 9.215223
62.765 8.867257
62.770 8.251375
62.775 8.321698
62.780 8.679921
62.785 8.862189
62.790 8.674681
62.795 8.628316
62.800 8.421997
62.805 8.252225
62.810 7.841645
62.815 7.555722
62.820 7.388462
62.825 7.240014
62.830 7.401989
62.835 7.866959
62.840 8.137655
62.845 8.325613
62.850 8.32492
62.855 8.409703
62.860 8.306583
62.865 7.829099
62.870 7.317698
62.875 7.155332
62.880 7.386074
62.885 7.312342
62.890 7.019048
62.895 6.970828
62.900 7.166621
62.905 7.422373
62.910 7.549265
62.915 6.853449
62.920 6.91131
62.925 7.121555
62.930 7.360121
62.935 7.677511
62.940 7.508892
62.945 7.267415
62.950 7.368546
62.955 7.499438
62.960 7.306704
62.965 6.914218
62.970 7.017953
62.975 7.212608
62.980 7.165618
62.985 7.39026
62.990 7.57448
62.995 7.861042
63.000 7.984736
63.005 7.171535
63.010 7.020931
63.015 7.224657
63.020 6.945304
63.025 6.477363
63.030 6.325603
63.035 6.630973
63.040 6.798632
63.045 6.806143
63.050 6.510251
63.055 6.44764
63.060 6.728691
63.065 7.119876
63.070 6.904447
63.075 6.977134
63.080 7.190805
63.085 7.330654
63.090 7.432219
63.095 7.417578
63.100 7.291864
63.105 7.529103
63.110 8.071413
63.115 8.160537
63.120 8.528964
63.125 8.643734
63.130 8.371801
63.135 8.534669
63.140 8.590281
63.145 8.127202
63.150 7.924476
63.155 8.233088
63.160 8.40694
63.165 8.372564
63.170 7.86553
63.175 7.855466
63.180 8.55259
63.185 9.24743
63.190 8.893701
63.195 8.873667
63.200 9.183357
63.205 9.303083
63.210 9.280235
63.215 8.719025
63.220 8.136773
63.225 8.136841
63.230 8.268522
63.235 8.334085
63.240 8.481297
63.245 8.608147
63.250 8.56955
63.255 8.784038
63.260 8.567948
63.265 8.304706
63.270 8.096425
63.275 8.280197
63.280 8.260882
63.285 7.915247
63.290 8.004656
63.295 8.610344
63.300 8.802251
63.305 8.749597
63.310 8.635818
63.315 8.722845
63.320 9.37269
63.325 9.012478
63.330 8.28939
63.335 7.999876
63.340 7.967043
63.345 7.711545
63.350 7.645009
63.355 7.524868
63.360 7.62657
63.365 7.86833
63.370 8.320976
63.375 8.523959
63.380 8.489988
63.385 8.296977
63.390 8.115822
63.395 8.432107
63.400 8.497025
63.405 8.185056
63.410 7.992549
63.415 7.903596
63.420 7.717409
63.425 8.004714
63.430 8.294885
63.435 8.410279
63.440 8.593997
63.445 8.882783
63.450 9.165634
63.455 9.501299
63.460 9.257294
63.465 8.762788
63.470 8.527631
63.475 8.569104
63.480 8.751623
63.485 8.701931
63.490 8.390368
63.495 8.47052
63.500 8.784899
63.505 8.73658
63.510 8.886801
63.515 8.551486
63.520 8.504694
63.525 8.506679
63.530 8.363214
63.535 8.042877
63.540 8.214548
63.545 7.833457
63.550 7.496041
63.555 7.247092
63.560 7.188745
63.565 7.379596
63.570 7.476918
63.575 8.001039
63.580 8.411963
63.585 8.637788
63.590 8.82536
63.595 8.875347
63.600 8.518439
63.605 8.368389
63.610 7.593596
63.615 7.323888
63.620 7.387531
63.625 7.474879
63.630 7.606027
63.635 7.889268
63.640 7.815881
63.645 7.938139
63.650 7.980003
63.655 8.124905
63.660 8.237689
63.665 8.249913
63.670 7.781887
63.675 7.622261
63.680 7.528953
63.685 7.639523
63.690 7.832689
63.695 7.851722
63.700 7.701386
63.705 8.12282
63.710 8.986176
63.715 9.523963
63.720 9.607141
63.725 9.179948
63.730 9.107878
63.735 9.412552
63.740 9.650099
63.745 9.239303
63.750 8.703571
63.755 8.633921
63.760 8.623313
63.765 8.535696
63.770 8.427387
63.775 8.303522
63.780 8.688085
63.785 8.853936
63.790 8.965144
63.795 9.006718
63.800 9.013002
63.805 8.704171
63.810 8.421447
63.815 7.861695
63.820 7.774948
63.825 7.553322
63.830 7.583072
63.835 7.708985
63.840 8.24886
63.845 8.472419
63.850 8.592307
63.855 8.469972
63.860 8.46292
63.865 8.904728
63.870 8.770964
63.875 8.433509
63.880 8.487305
63.885 8.737575
63.890 9.138779
63.895 9.057252
63.900 8.969241
63.905 8.91273
63.910 8.713414
63.915 8.325214
63.920 8.037438
63.925 8.006795
63.930 8.555317
63.935 8.649754
63.940 8.788883
63.945 8.943638
63.950 8.940048
63.955 9.144809
63.960 9.573991
63.965 9.239492
63.970 9.08501
63.975 9.189342
63.980 9.545111
63.985 9.802234
63.990 10.062445
63.995 9.638434
64.000 9.807992
64.005 9.83768
64.010 10.0396
64.015 10.750466
64.020 10.913538
64.025 11.34167
64.030 11.521783
64.035 11.396577
64.040 11.344632
64.045 11.613056
64.050 11.48904
64.055 11.152519
64.060 10.552062
64.065 10.90525
64.070 11.010807
64.075 11.234251
64.080 11.016699
64.085 11.069401
64.090 11.18594
64.095 10.782253
64.100 10.381605
64.105 10.652542
64.110 10.715007
64.115 11.216178
64.120 11.171011
64.125 11.477788
64.130 11.660311
64.135 11.496363
64.140 11.386733
64.145 10.91343
64.150 10.303408
64.155 10.38905
64.160 10.069616
64.165 10.299431
64.170 10.49756
64.175 10.566936
64.180 11.343065
64.185 11.601925
64.190 11.762238
64.195 12.146882
64.200 12.202846
64.205 12.549154
64.210 12.563313
64.215 12.230157
64.220 11.935742
64.225 11.568037
64.230 11.621963
64.235 11.923841
64.240 11.474612
64.245 11.532068
64.250 11.903893
64.255 12.752645
64.260 13.265519
64.265 13.462514
64.270 14.168238
64.275 14.646514
64.280 14.517357
64.285 14.214168
64.290 13.674934
64.295 13.663279
64.300 13.85492
64.305 13.076922
64.310 12.898733
64.315 13.087565
64.320 13.310918
64.325 13.189988
64.330 13.796342
64.335 14.050317
64.340 14.4956
64.345 14.87069
64.350 14.717676
64.355 15.121694
64.360 15.74529
64.365 15.599291
64.370 15.694392
64.375 15.538738
64.380 15.9969
64.385 16.3216
64.390 16.129082
64.395 16.25841
64.400 16.298172
64.405 16.201628
64.410 16.616629
64.415 16.931469
64.420 16.687016
64.425 16.716127
64.430 17.375351
64.435 17.663879
64.440 17.770542
64.445 17.158674
64.450 17.035814
64.455 16.884418
64.460 16.403717
64.465 15.72759
64.470 15.111608
64.475 15.589409
64.480 15.450064
64.485 15.596178
64.490 15.912107
64.495 16.328596
64.500 16.214325
64.505 16.484316
64.510 15.962676
64.515 16.310446
64.520 15.748631
64.525 15.657739
64.530 15.642789
64.535 15.799672
64.540 15.354754
64.545 15.921172
64.550 15.97285
64.555 16.301991
64.560 16.46899
64.565 16.138212
64.570 15.57949
64.575 15.294757
64.580 14.454883
64.585 14.309917
64.590 14.005989
64.595 13.682276
64.600 13.519091
64.605 13.485905
64.610 13.943162
64.615 13.679662
64.620 13.290603
64.625 13.06703
64.630 13.027966
64.635 12.785023
64.640 12.848974
64.645 12.573941
64.650 12.631792
64.655 12.598594
64.660 12.400356
64.665 12.344201
64.670 12.270626
64.675 12.012809
64.680 11.665797
64.685 11.455538
64.690 11.554634
64.695 11.595811
64.700 11.377734
64.705 11.570619
64.710 11.810541
64.715 11.852504
64.720 11.692142
64.725 11.483787
64.730 11.385909
64.735 11.435726
64.740 11.559813
64.745 11.617663
64.750 11.477436
64.755 11.414908
64.760 11.180235
64.765 11.277246
64.770 11.317938
64.775 10.945765
64.780 10.388364
64.785 10.376333
64.790 10.098294
64.795 9.907435
64.800 9.656905
64.805 9.841452
64.810 9.825069
64.815 9.714089
64.820 9.700527
64.825 10.013355
64.830 10.495277
64.835 10.463491
64.840 10.311893
64.845 10.218787
64.850 10.279582
64.855 10.605601
64.860 10.796623
64.865 11.034653
64.870 11.688729
64.875 11.816767
64.880 11.820823
64.885 11.564877
64.890 11.062023
64.895 11.068204
64.900 10.654801
64.905 9.953453
64.910 9.680042
64.915 9.718083
64.920 9.914239
64.925 10.097687
64.930 9.851404
64.935 9.402988
64.940 9.643075
64.945 9.741415
64.950 9.82291
64.955 10.118828
64.960 10.119569
64.965 10.135876
64.970 10.652132
64.975 10.764902
64.980 10.585612
64.985 10.597625
64.990 10.616974
64.995 10.553683
65.000 10.609336
65.005 10.566052
65.010 10.610011
65.015 11.143567
65.020 11.674003
65.025 11.784856
65.030 12.245404
65.035 12.582511
65.040 12.66347
65.045 12.983934
65.050 12.914023
65.055 12.771069
65.060 12.967244
65.065 13.240585
65.070 13.423354
65.075 13.37454
65.080 13.360921
65.085 13.315955
65.090 13.414579
65.095 13.126564
65.100 12.538155
65.105 12.549889
65.110 12.348259
65.115 12.239381
65.120 12.241001
65.125 12.301082
65.130 12.430512
65.135 12.907155
65.140 13.055711
65.145 13.583724
65.150 13.701695
65.155 13.827859
65.160 13.911801
65.165 13.812452
65.170 13.388255
65.175 13.125826
65.180 12.885773
65.185 12.729196
65.190 12.420818
65.195 11.782077
65.200 11.670478
65.205 11.762903
65.210 12.078078
65.215 12.005733
65.220 11.843843
65.225 12.218508
65.230 13.146051
65.235 13.642665
65.240 14.101678
65.245 14.298693
65.250 14.672384
65.255 14.876349
65.260 14.409435
65.265 13.982966
65.270 14.096228
65.275 14.46293
65.280 14.245455
65.285 13.869004
65.290 13.874476
65.295 14.196879
65.300 14.191717
65.305 13.688816
65.310 13.466496
65.315 13.593219
65.320 14.193226
65.325 14.536787
65.330 14.802331
65.335 15.095277
65.340 15.262443
65.345 15.012482
65.350 15.179209
65.355 14.855201
65.360 14.429898
65.365 14.007234
65.370 13.414144
65.375 13.121027
65.380 12.939442
65.385 12.46922
65.390 12.679042
65.395 12.84963
65.400 13.087687
65.405 13.618338
65.410 13.709562
65.415 14.208577
65.420 14.273
65.425 13.632941
65.430 13.716792
65.435 13.879106
65.440 14.333451
65.445 14.508405
65.450 14.141124
65.455 14.027841
65.460 14.540953
65.465 14.54922
65.470 13.836676
65.475 13.136283
65.480 13.457658
65.485 13.7432
65.490 13.706059
65.495 13.326094
65.500 13.178042
65.505 13.651288
65.510 13.835625
65.515 13.45085
65.520 12.959968
65.525 12.751297
65.530 12.70261
65.535 13.204574
65.540 12.702839
65.545 12.446241
65.550 12.331042
65.555 12.382927
65.560 12.364744
65.565 12.375754
65.570 12.237214
65.575 12.920876
65.580 13.151529
65.585 13.178282
65.590 13.498264
65.595 14.055352
65.600 14.371989
65.605 14.393868
65.610 14.135508
65.615 13.803199
65.620 13.677681
65.625 13.538357
65.630 13.353998
65.635 13.215907
65.640 13.016235
65.645 13.001852
65.650 12.917903
65.655 13.001137
65.660 12.899455
65.665 13.061662
65.670 12.89398
65.675 12.664393
65.680 12.785138
65.685 12.967808
65.690 13.171962
65.695 13.250642
65.700 13.162807
65.705 13.346801
65.710 13.549096
65.715 13.350909
65.720 13.778872
65.725 13.783669
65.730 13.256393
65.735 12.645308
65.740 12.533765
65.745 12.996126
65.750 12.317151
65.755 11.558887
65.760 11.445928
65.765 12.004952
65.770 12.228185
65.775 12.0721
65.780 11.766644
65.785 12.014733
65.790 12.045126
65.795 11.996039
65.800 11.857533
65.805 12.267652
65.810 11.947272
65.815 11.784566
65.820 12.279363
65.825 12.572356
65.830 12.137627
65.835 12.140439
65.840 12.136127
65.845 12.284405
65.850 12.471464
65.855 12.401931
65.860 12.661242
65.865 13.217959
65.870 13.030911
65.875 13.423429
65.880 13.366535
65.885 13.38079
65.890 13.097959
65.895 12.891764
65.900 12.846751
65.905 12.700507
65.910 12.479129
65.915 12.509606
65.920 12.468036
65.925 12.432096
65.930 11.979575
65.935 11.525505
65.940 11.200986
65.945 10.901636
65.950 10.536891
65.955 10.344377
65.960 10.555933
65.965 10.809476
65.970 10.848005
65.975 10.99509
65.980 10.72458
65.985 11.022592
65.990 10.921754
65.995 10.803735
66.000 11.474633
66.005 11.930649
66.010 11.902784
66.015 12.340032
66.020 12.301139
66.025 12.352045
66.030 12.073602
66.035 11.101914
66.040 10.673929
66.045 10.358234
66.050 10.180648
66.055 10.348141
66.060 9.773089
66.065 9.600313
66.070 9.890057
66.075 10.137298
66.080 10.218048
66.085 10.143778
66.090 10.017122
66.095 10.737432
66.100 11.399469
66.105 11.294513
66.110 10.678786
66.115 10.51673
66.120 10.38555
66.125 10.798696
66.130 10.814306
66.135 10.030432
66.140 10.121011
66.145 10.664916
66.150 10.999291
66.155 10.787444
66.160 10.339254
66.165 10.289847
66.170 10.361936
66.175 10.199426
66.180 10.014506
66.185 9.772725
66.190 10.093741
66.195 9.904834
66.200 9.980764
66.205 9.961641
66.210 10.151584
66.215 10.200943
66.220 10.104342
66.225 9.810326
66.230 9.820526
66.235 9.30862
66.240 9.351573
66.245 9.119264
66.250 9.071636
66.255 8.934569
66.260 8.80667
66.265 8.675436
66.270 8.919546
66.275 8.84025
66.280 8.823443
66.285 9.350597
66.290 9.244884
66.295 9.152211
66.300 9.147488
66.305 8.725749
66.310 8.650376
66.315 8.340439
66.320 7.733785
66.325 8.027918
66.330 8.187362
66.335 8.008794
66.340 8.109588
66.345 8.219299
66.350 8.819098
66.355 9.286659
66.360 8.918057
66.365 8.823428
66.370 8.988181
66.375 8.863282
66.380 8.820531
66.385 8.455714
66.390 8.238281
66.395 8.719092
66.400 8.627422
66.405 8.705759
66.410 9.272988
66.415 9.295756
66.420 9.379937
66.425 9.455421
66.430 8.87627
66.435 9.043446
66.440 8.988666
66.445 8.868252
66.450 9.064733
66.455 8.992104
66.460 8.763557
66.465 9.147653
66.470 9.284574
66.475 9.62758
66.480 9.719756
66.485 9.790445
66.490 9.888798
66.495 9.916357
66.500 9.70785
66.505 9.501855
66.510 9.146191
66.515 8.821417
66.520 8.546841
66.525 8.380908
66.530 8.568419
66.535 8.752191
66.540 8.633679
66.545 8.762227
66.550 8.79472
66.555 8.943078
66.560 8.792938
66.565 8.345316
66.570 8.383202
66.575 8.968059
66.580 9.014995
66.585 9.087197
66.590 9.00623
66.595 9.691271
66.600 9.874595
66.605 9.721112
66.610 9.322546
66.615 9.159483
66.620 9.37145
66.625 9.706344
66.630 9.265342
66.635 9.075949
66.640 8.905146
66.645 8.775787
66.650 8.790039
66.655 8.605662
66.660 8.408913
66.665 8.520554
66.670 8.787598
66.675 8.810803
66.680 9.209433
66.685 9.348127
66.690 9.103215
66.695 8.71164
66.700 8.483908
66.705 8.483122
66.710 8.717032
66.715 8.67908
66.720 8.806164
66.725 8.887018
66.730 8.853712
66.735 8.905012
66.740 8.5021
66.745 8.235276
66.750 7.998475
66.755 8.031446
66.760 8.162623
66.765 8.94726
66.770 9.152427
66.775 9.456835
66.780 9.659149
66.785 9.604884
66.790 9.246749
66.795 9.17953
66.800 8.628739
66.805 8.905305
66.810 8.881143
66.815 8.877146
66.820 8.958275
66.825 8.921359
66.830 8.972645
66.835 9.40738
66.840 9.283748
66.845 9.186548
66.850 9.473215
66.855 9.457093
66.860 9.364143
66.865 9.221105
66.870 8.847621
66.875 8.770802
66.880 8.852588
66.885 8.860856
66.890 9.051979
66.895 9.284912
66.900 9.4494
66.905 9.673654
66.910 9.609285
66.915 9.371891
66.920 9.081708
66.925 9.135202
66.930 9.615479
66.935 9.500416
66.940 9.359396
66.945 9.818062
66.950 9.726788
66.955 9.705747
66.960 9.503615
66.965 8.785751
66.970 8.688872
66.975 8.936242
66.980 8.742314
66.985 8.87755
66.990 8.863087
66.995 8.885946
67.000 9.207649
67.005 8.981856
67.010 8.772063
67.015 8.501332
67.020 8.438973
67.025 8.544117
67.030 8.921231
67.035 8.680547
67.040 8.690905
67.045 8.691797
67.050 8.772295
67.055 8.945514
67.060 8.665263
67.065 8.145658
67.070 8.199889
67.075 8.387397
67.080 8.864453
67.085 9.088899
67.090 8.917311
67.095 8.834824
67.100 9.248779
67.105 9.397202
67.110 8.936609
67.115 8.382059
67.120 8.271076
67.125 8.632695
67.130 8.660196
67.135 8.480553
67.140 8.619637
67.145 9.256783
67.150 9.034063
67.155 8.973598
67.160 8.596363
67.165 8.56972
67.170 8.543616
67.175 8.183941
67.180 8.262694
67.185 8.574999
67.190 8.325678
67.195 8.875454
67.200 9.15916
67.205 9.422348
67.210 9.755048
67.215 10.020853
67.220 10.18024
67.225 10.135618
67.230 9.74783
67.235 9.597765
67.240 9.650408
67.245 9.281424
67.250 8.88099
67.255 9.352589
67.260 9.435236
67.265 9.208898
67.270 9.308213
67.275 9.182996
67.280 9.251352
67.285 9.35242
67.290 8.853479
67.295 8.54942
67.300 8.991385
67.305 9.07106
67.310 9.219139
67.315 9.134722
67.320 9.045086
67.325 9.267269
67.330 9.547537
67.335 9.286819
67.340 8.970531
67.345 8.636184
67.350 8.696317
67.355 8.667009
67.360 8.647236
67.365 8.434852
67.370 8.293118
67.375 8.776593
67.380 8.574126
67.385 8.899035
67.390 9.100147
67.395 9.218952
67.400 9.52704
67.405 9.642901
67.410 9.538389
67.415 9.943645
67.420 9.591394
67.425 9.086987
67.430 9.078977
67.435 9.094301
67.440 9.050131
67.445 9.219024
67.450 9.064317
67.455 8.894571
67.460 8.728187
67.465 8.672466
67.470 8.63273
67.475 8.508693
67.480 8.458095
67.485 8.594054
67.490 8.943775
67.495 9.346222
67.500 9.574451
67.505 9.163523
67.510 9.033017
67.515 9.374205
67.520 9.251079
67.525 9.009892
67.530 9.186136
67.535 9.040619
67.540 9.091987
67.545 9.066697
67.550 8.734721
67.555 9.234289
67.560 9.286205
67.565 9.166768
67.570 8.941351
67.575 8.841046
67.580 9.088941
67.585 9.429506
67.590 9.226766
67.595 9.243899
67.600 9.258404
67.605 9.873775
67.610 10.44458
67.615 10.61566
67.620 10.31618
67.625 10.317213
67.630 9.989736
67.635 9.578115
67.640 9.275874
67.645 9.042736
67.650 8.43279
67.655 8.741832
67.660 8.766157
67.665 8.992222
67.670 9.39642
67.675 9.53015
67.680 9.610605
67.685 9.750591
67.690 9.504026
67.695 9.095757
67.700 8.908237
67.705 8.527842
67.710 8.279428
67.715 7.818847
67.720 7.548393
67.725 7.285591
67.730 7.660399
67.735 7.881108
67.740 7.781532
67.745 7.888005
67.750 8.384798
67.755 8.680585
67.760 8.670431
67.765 8.445982
67.770 8.655534
67.775 8.824031
67.780 8.720924
67.785 8.516362
67.790 8.487069
67.795 8.460753
67.800 8.595286
67.805 8.711481
67.810 8.972597
67.815 8.919098
67.820 9.118141
67.825 9.498633
67.830 9.487745
67.835 9.184617
67.840 8.781187
67.845 8.730529
67.850 8.665297
67.855 8.451302
67.860 8.21863
67.865 8.505617
67.870 8.936521
67.875 9.535577
67.880 9.29147
67.885 9.140264
67.890 9.079691
67.895 9.265052
67.900 9.412602
67.905 8.914805
67.910 8.616211
67.915 9.015612
67.920 9.226993
67.925 9.31293
67.930 9.265663
67.935 9.143088
67.940 9.180758
67.945 9.321707
67.950 9.21976
67.955 9.00003
67.960 8.721455
67.965 8.489078
67.970 8.299664
67.975 7.891888
67.980 7.724529
67.985 7.273527
67.990 7.232021
67.995 7.74455
68.000 7.681761
68.005 8.256339
68.010 8.498257
68.015 8.488175
68.020 8.788822
68.025 8.944392
68.030 8.23771
68.035 8.0368
68.040 7.67942
68.045 7.895257
68.050 7.948503
68.055 7.987766
68.060 8.318358
68.065 8.947169
68.070 9.784512
68.075 9.685617
68.080 9.589195
68.085 9.719556
68.090 10.013392
68.095 10.015283
68.100 9.895978
68.105 9.838203
68.110 9.984904
68.115 9.830449
68.120 9.634084
68.125 9.200828
68.130 8.882497
68.135 8.680969
68.140 8.583727
68.145 8.630504
68.150 8.696086
68.155 8.806571
68.160 8.847109
68.165 8.876831
68.170 8.783567
68.175 8.926311
68.180 9.138667
68.185 9.437857
68.190 9.322144
68.195 9.435947
68.200 9.314971
68.205 9.194989
68.210 8.514627
68.215 8.235867
68.220 8.325148
68.225 8.406451
68.230 8.525889
68.235 8.519431
68.240 8.911326
68.245 9.053842
68.250 9.158395
68.255 9.228693
68.260 9.544371
68.265 9.426531
68.270 9.716958
68.275 9.524891
68.280 9.59312
68.285 9.74689
68.290 9.418199
68.295 9.227602
68.300 9.16096
68.305 9.387946
68.310 9.750225
68.315 9.827826
68.320 9.537445
68.325 9.849594
68.330 9.904905
68.335 10.099832
68.340 10.23947
68.345 10.143761
68.350 10.18161
68.355 10.340158
68.360 10.165368
68.365 10.218819
68.370 10.730809
68.375 10.566278
68.380 10.462361
68.385 10.976929
68.390 11.087391
68.395 11.214914
68.400 11.11656
68.405 10.60381
68.410 10.572333
68.415 10.860894
68.420 11.013001
68.425 11.087089
68.430 11.24682
68.435 11.408218
68.440 11.571731
68.445 11.816325
68.450 11.742247
68.455 11.866915
68.460 11.623394
68.465 11.798863
68.470 11.849539
68.475 11.835004
68.480 11.660669
68.485 11.550143
68.490 11.354406
68.495 11.981629
68.500 11.950222
68.505 11.612457
68.510 11.455437
68.515 11.60781
68.520 12.396743
68.525 13.03887
68.530 12.980044
68.535 13.639589
68.540 14.414182
68.545 14.416051
68.550 14.201941
68.555 13.47423
68.560 13.454322
68.565 13.224615
68.570 12.114267
68.575 11.765635
68.580 12.774739
68.585 13.12953
68.590 12.569788
68.595 11.992256
68.600 11.847741
68.605 12.477634
68.610 12.839679
68.615 12.129046
68.620 12.309179
68.625 12.694516
68.630 12.916364
68.635 13.103347
68.640 13.087371
68.645 12.678143
68.650 12.959728
68.655 13.338937
68.660 13.568637
68.665 13.890602
68.670 13.508247
68.675 13.317404
68.680 13.147568
68.685 12.802896
68.690 12.412252
68.695 12.278152
68.700 12.431621
68.705 13.216404
68.710 13.168595
68.715 13.553865
68.720 13.289818
68.725 13.252512
68.730 13.322263
68.735 12.705229
68.740 12.335361
68.745 12.555098
68.750 12.083252
68.755 12.245306
68.760 12.184855
68.765 12.956511
68.770 13.528138
68.775 13.576429
68.780 13.73692
68.785 13.931644
68.790 14.015797
68.795 14.086357
68.800 13.423756
68.805 12.97047
68.810 13.116809
68.815 13.186902
68.820 13.428747
68.825 13.654619
68.830 13.491275
68.835 13.355674
68.840 13.30016
68.845 13.182733
68.850 13.212886
68.855 12.770167
68.860 12.543439
68.865 12.745826
68.870 12.860269
68.875 12.830524
68.880 12.712716
68.885 12.857205
68.890 12.755805
68.895 13.183049
68.900 13.341995
68.905 13.834454
68.910 14.177709
68.915 14.107875
68.920 13.986138
68.925 14.617548
68.930 14.589457
68.935 14.559361
68.940 14.529333
68.945 14.452946
68.950 14.529363
68.955 14.802027
68.960 14.346642
68.965 13.887086
68.970 13.231817
68.975 13.005
68.980 13.017198
68.985 12.46094
68.990 12.15057
68.995 12.547374
69.000 12.77558
69.005 13.385604
69.010 13.258267
69.015 13.359468
69.020 13.752678
69.025 13.735953
69.030 13.190977
69.035 12.677812
69.040 11.727381
69.045 11.37039
69.050 11.161101
69.055 11.485099
69.060 11.334659
69.065 11.267811
69.070 11.173553
69.075 11.859102
69.080 12.057757
69.085 11.749615
69.090 11.184881
69.095 11.293227
69.100 11.749646
69.105 12.390302
69.110 12.091526
69.115 11.493693
69.120 11.651806
69.125 11.823339
69.130 11.657665
69.135 11.989053
69.140 11.688847
69.145 12.103271
69.150 12.71367
69.155 13.124738
69.160 13.244652
69.165 12.881561
69.170 12.298446
69.175 12.563684
69.180 12.404601
69.185 12.123336
69.190 11.685859
69.195 11.462463
69.200 11.481732
69.205 11.377747
69.210 11.279424
69.215 11.558
69.220 11.172281
69.225 10.837996
69.230 11.206344
69.235 11.071275
69.240 10.927204
69.245 10.892008
69.250 10.922626
69.255 11.344356
69.260 11.16831
69.265 10.73829
69.270 10.879848
69.275 10.988373
69.280 9.985847
69.285 9.904848
69.290 10.002481
69.295 10.186211
69.300 10.252897
69.305 10.118571
69.310 10.070617
69.315 10.157109
69.320 9.959789
69.325 10.226379
69.330 10.312598
69.335 10.755057
69.340 11.162051
69.345 11.545968
69.350 11.824623
69.355 11.994368
69.360 11.610695
69.365 11.511467
69.370 11.367873
69.375 10.858505
69.380 10.196668
69.385 9.772951
69.390 9.9988
69.395 10.157363
69.400 9.898499
69.405 9.729236
69.410 9.996955
69.415 10.285398
69.420 10.685917
69.425 10.593272
69.430 10.956805
69.435 10.984159
69.440 10.502124
69.445 10.348421
69.450 9.950537
69.455 9.650293
69.460 9.407374
69.465 9.207031
69.470 9.594151
69.475 9.831447
69.480 9.771841
69.485 10.224793
69.490 10.210659
69.495 10.36449
69.500 10.445233
69.505 10.773314
69.510 10.78293
69.515 10.456234
69.520 10.053041
69.525 9.740631
69.530 9.504721
69.535 9.210189
69.540 8.819878
69.545 8.999907
69.550 9.333002
69.555 9.220147
69.560 9.179076
69.565 9.283455
69.570 9.543329
69.575 9.397819
69.580 9.477813
69.585 9.421669
69.590 9.566485
69.595 9.948247
69.600 10.030197
69.605 9.840265
69.610 9.634821
69.615 9.447228
69.620 9.704663
69.625 9.841659
69.630 9.661568
69.635 9.652355
69.640 9.732213
69.645 9.908565
69.650 9.462182
69.655 9.011492
69.660 9.162782
69.665 8.967723
69.670 8.904922
69.675 8.906464
69.680 9.160728
69.685 9.43679
69.690 9.666436
69.695 9.469798
69.700 9.606761
69.705 9.328397
69.710 9.217023
69.715 8.860895
69.720 8.895237
69.725 8.510277
69.730 8.276809
69.735 8.164742
69.740 8.066808
69.745 8.268283
69.750 8.267844
69.755 8.209022
69.760 8.414265
69.765 9.020384
69.770 9.121563
69.775 9.448503
69.780 9.612193
69.785 9.545182
69.790 9.297656
69.795 8.821426
69.800 8.375494
69.805 7.965719
69.810 7.506844
69.815 7.608911
69.820 8.017071
69.825 8.792994
69.830 9.294159
69.835 9.874337
69.840 10.429248
69.845 10.51645
69.850 10.830106
69.855 11.001083
69.860 10.923643
69.865 10.58954
69.870 10.407075
69.875 10.389627
69.880 10.94458
69.885 10.364047
69.890 10.075861
69.895 10.315893
69.900 10.376039
69.905 9.891436
69.910 9.763824
69.915 9.381117
69.920 9.724723
69.925 9.093718
69.930 8.754583
69.935 9.139719
69.940 8.955422
69.945 8.77112
69.950 8.618055
69.955 8.802574
69.960 9.201235
69.965 8.985111
69.970 8.654357
69.975 9.044012
69.980 9.129807
69.985 8.783154
69.990 8.623484
69.995 8.836343
70.000 9.049991
70.005 9.271945
70.010 8.457548
70.015 8.223896
70.020 8.390031
70.025 8.645679
70.030 8.285366
70.035 8.223214
70.040 8.019185
70.045 8.572701
70.050 9.34127
70.055 9.376589
70.060 8.943829
70.065 9.245957
70.070 9.410409
70.075 9.571607
70.080 9.581322
70.085 8.790516
70.090 8.400332
70.095 8.461419
70.100 8.314546
70.105 8.656282
70.110 8.861673
70.115 9.107105
70.120 9.790668
70.125 10.086638
70.130 10.674966
70.135 10.428402
70.140 10.134253
70.145 10.346929
70.150 10.603099
70.155 10.589503
70.160 10.317012
70.165 9.764744
70.170 9.561209
70.175 9.692704
70.180 9.108
70.185 8.897863
70.190 8.670917
70.195 8.851313
70.200 9.169962
70.205 9.922828
70.210 10.229645
70.215 10.035965
70.220 9.793057
70.225 9.823664
70.230 9.603104
70.235 9.35863
70.240 8.965218
70.245 9.182438
70.250 9.420602
70.255 9.749837
70.260 10.007639
70.265 10.148072
70.270 10.179921
70.275 9.967694
70.280 10.016026
70.285 10.028
70.290 9.882133
70.295 9.678668
70.300 9.765998
70.305 9.957337
70.310 9.914981
70.315 9.538575
70.320 9.402751
70.325 9.34679
70.330 9.337073
70.335 9.147751
70.340 8.704345
70.345 8.951764
70.350 9.066647
70.355 9.2249
70.360 9.304676
70.365 9.479989
70.370 9.614445
70.375 10.058537
70.380 9.892423
70.385 9.84321
70.390 9.366214
70.395 8.978696
70.400 8.991601
70.405 8.839903
70.410 7.999431
70.415 7.953783
70.420 8.120083
70.425 8.548189
70.430 8.683462
70.435 8.59199
70.440 8.654401
70.445 9.071576
70.450 9.281132
70.455 9.487121
70.460 9.46918
70.465 9.586243
70.470 10.00233
70.475 10.411835
70.480 10.861033
70.485 10.784118
70.490 10.88308
70.495 11.08207
70.500 11.116243
70.505 11.052755
70.510 10.666804
70.515 10.49961
70.520 10.353532
70.525 9.661775
70.530 9.558308
70.535 9.158362
70.540 8.723578
70.545 8.109033
70.550 7.681204
70.555 7.905769
70.560 8.68817
70.565 8.941381
70.570 9.211086
70.575 9.217553
70.580 9.69721
70.585 9.780777
70.590 9.216042
70.595 8.373564
70.600 7.819143
70.605 7.902024
70.610 8.199687
70.615 7.959808
70.620 7.824989
70.625 8.076937
70.630 8.633771
70.635 8.63555
70.640 8.703897
70.645 9.164172
70.650 9.476782
70.655 9.669779
70.660 9.437396
70.665 9.34095
70.670 9.384024
70.675 9.033055
70.680 8.87092
70.685 8.710777
70.690 8.90994
70.695 9.088511
70.700 9.196493
70.705 9.161421
70.710 9.170046
70.715 9.035205
70.720 9.086875
70.725 8.99612
70.730 9.054221
70.735 8.929418
70.740 9.239687
70.745 9.169518
70.750 8.784739
70.755 8.597346
70.760 8.437051
70.765 8.548047
70.770 8.76312
70.775 8.555632
70.780 8.452243
70.785 8.746107
70.790 8.982996
70.795 8.853843
70.800 8.654533
70.805 8.201151
70.810 8.273272
70.815 8.769588
70.820 9.135906
70.825 8.734158
70.830 8.638826
70.835 8.768237
70.840 8.880683
70.845 8.889727
70.850 8.595217
70.855 8.301198
70.860 8.833703
70.865 8.699254
70.870 8.698583
70.875 8.773026
70.880 8.357436
70.885 8.413742
70.890 8.723543
70.895 8.831159
70.900 9.31026
70.905 9.164342
70.910 9.131098
70.915 9.409045
70.920 9.588584
70.925 9.076461
70.930 8.821647
70.935 8.61248
70.940 8.774069
70.945 8.741588
70.950 8.402948
70.955 8.071367
70.960 8.269477
70.965 8.276674
70.970 8.177548
70.975 8.299341
70.980 8.463188
70.985 8.45849
70.990 8.457763
70.995 8.40414
71.000 8.313203
71.005 8.588446
71.010 8.538508
71.015 8.321174
71.020 8.562999
71.025 8.555997
71.030 8.599549
71.035 8.858725
71.040 8.985588
71.045 9.352654
71.050 9.796585
71.055 9.660013
71.060 9.651316
71.065 9.337919
71.070 9.157749
71.075 9.258367
71.080 8.943131
71.085 8.446055
71.090 8.325057
71.095 8.628057
71.100 8.822635
71.105 9.047537
71.110 8.806743
71.115 8.833988
71.120 8.944759
71.125 9.019485
71.130 8.689043
71.135 8.743361
71.140 8.474598
71.145 8.301497
71.150 8.618192
71.155 8.873358
71.160 8.750754
71.165 9.213808
71.170 8.934646
71.175 8.652169
71.180 8.951068
71.185 8.517217
71.190 8.34208
71.195 8.422752
71.200 8.635489
71.205 8.953068
71.210 9.27026
71.215 9.347593
71.220 9.675313
71.225 10.010612
71.230 9.866896
71.235 9.262637
71.240 8.774038
71.245 8.374519
71.250 8.602908
71.255 8.83347
71.260 8.816966
71.265 9.02789
71.270 9.199872
71.275 9.716454
71.280 9.967171
71.285 9.202497
71.290 8.879553
71.295 8.391565
71.300 7.946914
71.305 7.991023
71.310 7.790412
71.315 7.8038
71.320 8.201856
71.325 8.771286
71.330 9.581215
71.335 9.705248
71.340 9.889874
71.345 9.731734
71.350 9.358276
71.355 8.791197
71.360 8.211565
71.365 7.596149
71.370 7.678647
71.375 8.111005
71.380 8.62491
71.385 8.95219
71.390 9.237713
71.395 9.440907
71.400 10.11311
71.405 10.279892
71.410 10.058679
71.415 9.973981
71.420 9.899041
71.425 10.059881
71.430 9.689502
71.435 9.449288
71.440 9.207987
71.445 9.262495
71.450 9.036711
71.455 9.183973
71.460 9.220648
71.465 9.348693
71.470 9.235988
71.475 9.398309
71.480 9.201653
71.485 9.044461
71.490 8.79314
71.495 8.773883
71.500 8.367344
71.505 7.987303
71.510 7.588423
71.515 7.571511
71.520 7.649748
71.525 7.445781
71.530 7.397615
71.535 7.76596
71.540 8.155437
71.545 8.135989
71.550 8.498425
71.555 9.082942
71.560 9.362535
71.565 9.253424
71.570 9.429806
71.575 9.119917
71.580 8.838704
71.585 8.549693
71.590 8.532866
71.595 8.713249
71.600 8.896349
71.605 8.872823
71.610 8.93841
71.615 8.790839
71.620 8.935719
71.625 9.099065
71.630 9.235847
71.635 8.966287
71.640 8.800131
71.645 8.782201
71.650 8.887664
71.655 8.354214
71.660 7.628694
71.665 7.390333
71.670 7.759102
71.675 8.144897
71.680 8.545282
71.685 8.878975
71.690 9.046181
71.695 9.054253
71.700 8.761969
71.705 8.384818
71.710 7.790215
71.715 7.7186
71.720 7.697289
71.725 7.955678
71.730 8.207557
71.735 8.369478
71.740 8.540233
71.745 8.659937
71.750 8.713031
71.755 8.44634
71.760 8.340177
71.765 8.239909
71.770 8.516253
71.775 8.595437
71.780 8.775191
71.785 9.003297
71.790 8.888728
71.795 8.881738
71.800 8.745453
71.805 8.391892
71.810 8.324738
71.815 8.36205
71.820 7.842461
71.825 7.629966
71.830 7.880125
71.835 8.211588
71.840 8.765055
71.845 8.976613
71.850 9.475478
71.855 9.908104
71.860 10.240119
71.865 9.813714
71.870 9.704233
71.875 9.367752
71.880 8.926188
71.885 8.564438
71.890 8.7446
71.895 8.703931
71.900 8.981199
71.905 9.018898
71.910 9.470883
71.915 9.663856
71.920 9.537971
71.925 9.722194
71.930 10.110966
71.935 10.622949
71.940 10.312043
71.945 9.973094
71.950 9.86676
71.955 9.786502
71.960 9.649773
71.965 9.273843
71.970 8.708024
71.975 8.692681
71.980 8.756961
71.985 9.414909
71.990 9.793827
71.995 9.604771
72.000 9.678864
72.005 9.858603
72.010 9.923837
72.015 9.742068
72.020 9.259497
72.025 8.863137
72.030 8.550972
72.035 8.634405
72.040 8.656582
72.045 8.585371
72.050 8.691077
72.055 9.2771
72.060 9.586485
72.065 9.93919
72.070 9.238152
72.075 8.804974
72.080 8.709771
72.085 8.347607
72.090 7.749989
72.095 7.640785
72.100 7.587218
72.105 8.003676
72.110 8.304653
72.115 8.603118
72.120 8.555028
72.125 8.712814
72.130 8.751671
72.135 9.131485
72.140 9.456293
72.145 9.224092
72.150 9.122313
72.155 9.154146
72.160 8.941537
72.165 9.045727
72.170 8.916026
72.175 8.75782
72.180 8.767845
72.185 8.904398
72.190 9.34319
72.195 10.190176
72.200 10.160686
72.205 10.154838
72.210 10.304712
72.215 10.204756
72.220 10.041685
72.225 9.426987
72.230 8.803501
72.235 8.879058
72.240 8.752691
72.245 8.749489
72.250 8.837211
72.255 8.7125
72.260 9.071068
72.265 8.966611
72.270 8.44572
72.275 8.206446
72.280 8.179855
72.285 8.413229
72.290 8.772062
72.295 8.765903
72.300 9.301931
72.305 9.833068
72.310 9.995192
72.315 10.076995
72.320 9.69608
72.325 9.348915
72.330 8.874965
72.335 8.672172
72.340 8.504496
72.345 8.523514
72.350 8.296015
72.355 8.560346
72.360 8.15217
72.365 8.294955
72.370 8.007586
72.375 8.16035
72.380 8.162332
72.385 7.83323
72.390 7.922176
72.395 8.077992
72.400 7.909287
72.405 7.751714
72.410 7.231155
72.415 7.105324
72.420 7.170228
72.425 7.00744
72.430 7.509865
72.435 8.001209
72.440 7.959973
72.445 8.13695
72.450 8.473143
72.455 8.667434
72.460 8.386421
72.465 8.21722
72.470 8.097607
72.475 8.212259
72.480 8.439432
72.485 7.8437
72.490 7.758569
72.495 7.768476
72.500 7.783005
72.505 8.106625
72.510 8.32215
72.515 8.452532
72.520 8.999207
72.525 9.340932
72.530 8.889605
72.535 8.630866
72.540 8.667871
72.545 8.302275
72.550 8.489384
72.555 8.669692
72.560 8.535317
72.565 8.561963
72.570 8.6254
72.575 8.606132
72.580 9.078714
72.585 9.256863
72.590 9.756372
72.595 10.152437
72.600 10.821469
72.605 10.657758
72.610 10.344372
72.615 9.822469
72.620 9.283244
72.625 8.761894
72.630 8.349336
72.635 8.130313
72.640 8.259433
72.645 8.188168
72.650 8.234599
72.655 8.041281
72.660 8.115217
72.665 8.116681
72.670 8.20199
72.675 8.433018
72.680 8.4842
72.685 8.457629
72.690 8.945818
72.695 9.473399
72.700 9.110838
72.705 8.886597
72.710 8.924802
72.715 9.534195
72.720 9.466784
72.725 9.360939
72.730 9.671983
72.735 9.962174
72.740 10.053687
72.745 9.633958
72.750 9.387646
72.755 9.249536
72.760 8.96762
72.765 8.690104
72.770 8.419667
72.775 8.374376
72.780 8.317438
72.785 8.389954
72.790 8.265188
72.795 8.01636
72.800 8.114861
72.805 8.181989
72.810 8.176082
72.815 8.214287
72.820 7.966451
72.825 7.91418
72.830 7.925083
72.835 8.261771
72.840 8.182726
72.845 8.140555
72.850 8.011867
72.855 7.932213
72.860 8.072146
72.865 7.613585
72.870 7.203388
72.875 7.291624
72.880 7.719582
72.885 8.013954
72.890 7.942978
72.895 7.803972
72.900 8.336177
72.905 8.442816
72.910 8.219465
72.915 7.935928
72.920 8.208269
72.925 8.596284
72.930 8.653874
72.935 8.173637
72.940 8.434234
72.945 8.853182
72.950 9.205752
72.955 8.953958
72.960 8.635773
72.965 8.184646
72.970 8.060204
72.975 7.986237
72.980 7.795153
72.985 7.161135
72.990 6.978807
72.995 7.545887
73.000 7.860259
