!@!!GADDS PLOTSO FILE: Chi integration type
!@!!Title/SampleName: map-15c
!@!!Comment: ?
!@!!User: Bruker Instrument Administrator
!@!!Site: University of Illinois Chicago
!@!!Frame: map-15c_01_000.gfrm
!@!!Wavelengths    1.54184   1.54056   1.54439
!@!!Frame angles: 2Theta: 63.000 Omega: 50.000 Phi: 0.000 Chi: 90.000
!@!!Integration range: 2Theta: 53.000 to 73.000  Gamma: -105.000 to -75.000
!@!!Integration method: bin normalized
!@!N
!@!SS
!@!M
!@!L 0.0 0.0 0.0 0.0
!@!XDegrees
!@!YCounts
53.000 7.975487
53.005 7.784102
53.010 7.794789
53.015 7.749269
53.020 7.28418
53.025 7.369849
53.030 7.085696
53.035 6.909979
53.040 7.124778
53.045 7.35592
53.050 7.485072
53.055 7.270721
53.060 7.207916
53.065 7.238183
53.070 6.847532
53.075 6.620726
53.080 5.991675
53.085 6.140761
53.090 6.730577
53.095 6.631601
53.100 6.806667
53.105 7.18005
53.110 7.38672
53.115 7.478791
53.120 7.171735
53.125 7.471211
53.130 7.787131
53.135 7.269124
53.140 7.180294
53.145 7.490229
53.150 7.618575
53.155 7.40843
53.160 7.027874
53.165 6.891951
53.170 7.26329
53.175 7.133871
53.180 7.112744
53.185 7.019146
53.190 7.23261
53.195 7.407196
53.200 7.658253
53.205 7.55473
53.210 7.571912
53.215 6.949496
53.220 7.118988
53.225 7.075159
53.230 6.797475
53.235 7.09634
53.240 7.163779
53.245 7.671618
53.250 8.115999
53.255 7.677176
53.260 7.745179
53.265 7.807782
53.270 7.352061
53.275 7.141208
53.280 7.03015
53.285 7.066486
53.290 7.594604
53.295 7.319093
53.300 7.454886
53.305 7.225362
53.310 7.212476
53.315 7.082431
53.320 7.465051
53.325 7.169802
53.330 7.177654
53.335 7.281127
53.340 7.5424
53.345 7.537615
53.350 7.384889
53.355 7.261812
53.360 7.505161
53.365 7.518856
53.370 7.102839
53.375 6.974514
53.380 7.358118
53.385 7.434216
53.390 7.232825
53.395 6.893551
53.400 6.934909
53.405 7.302466
53.410 7.207273
53.415 7.145975
53.420 7.632211
53.425 7.645087
53.430 7.693247
53.435 7.75263
53.440 7.6798
53.445 7.69232
53.450 7.26964
53.455 6.963595
53.460 6.990393
53.465 7.435498
53.470 7.373419
53.475 7.522208
53.480 7.664003
53.485 7.669348
53.490 7.643096
53.495 7.594608
53.500 7.209315
53.505 7.316903
53.510 7.080256
53.515 6.989813
53.520 7.193223
53.525 7.358394
53.530 7.544094
53.535 7.774751
53.540 7.584475
53.545 7.652925
53.550 7.658528
53.555 7.5906
53.560 7.232409
53.565 6.921289
53.570 6.715956
53.575 6.659575
53.580 6.722965
53.585 6.53636
53.590 6.224766
53.595 6.510083
53.600 6.845042
53.605 7.155032
53.610 7.484079
53.615 7.75141
53.620 8.434933
53.625 8.88693
53.630 9.055113
53.635 8.769426
53.640 8.465357
53.645 8.524573
53.650 8.085947
53.655 7.507522
53.660 6.994644
53.665 6.579497
53.670 6.800264
53.675 6.833267
53.680 6.793611
53.685 7.01152
53.690 7.649663
53.695 8.024601
53.700 7.98486
53.705 7.521628
53.710 7.195081
53.715 6.999338
53.720 7.148972
53.725 7.006034
53.730 7.19277
53.735 7.30418
53.740 7.104595
53.745 7.293283
53.750 7.258791
53.755 6.910068
53.760 6.715648
53.765 6.780355
53.770 6.890635
53.775 7.261451
53.780 7.016031
53.785 7.028185
53.790 7.157201
53.795 7.057654
53.800 7.209672
53.805 7.416643
53.810 7.768895
53.815 7.829083
53.820 7.506465
53.825 7.363915
53.830 7.357653
53.835 7.53191
53.840 7.720844
53.845 7.230208
53.850 7.342552
53.855 7.133957
53.860 6.84712
53.865 6.668076
53.870 6.287489
53.875 6.108779
53.880 6.326365
53.885 6.156042
53.890 6.553175
53.895 6.688131
53.900 7.063449
53.905 7.53724
53.910 7.339834
53.915 7.461846
53.920 7.576477
53.925 7.660255
53.930 7.815827
53.935 7.18541
53.940 6.845702
53.945 7.05581
53.950 6.843608
53.955 6.477683
53.960 6.842349
53.965 7.289766
53.970 7.641908
53.975 7.67762
53.980 7.645203
53.985 8.062902
53.990 8.179449
53.995 7.696052
54.000 7.385216
54.005 7.539808
54.010 7.690251
54.015 7.844914
54.020 7.77391
54.025 8.007693
54.030 8.007144
54.035 8.184488
54.040 8.179194
54.045 8.382242
54.050 8.545995
54.055 8.50218
54.060 8.23601
54.065 7.957077
54.070 7.811686
54.075 7.405603
54.080 7.243092
54.085 6.874361
54.090 7.001647
54.095 7.208346
54.100 7.396857
54.105 7.398711
54.110 7.518445
54.115 7.912388
54.120 8.054314
54.125 7.855287
54.130 7.484175
54.135 7.301787
54.140 7.652669
54.145 7.299572
54.150 6.66909
54.155 6.666494
54.160 6.933663
54.165 6.942202
54.170 6.921912
54.175 6.892397
54.180 7.093687
54.185 7.464427
54.190 7.732666
54.195 8.200423
54.200 8.356498
54.205 8.457808
54.210 8.157796
54.215 7.934871
54.220 7.812343
54.225 7.336583
54.230 7.286546
54.235 7.423151
54.240 7.519659
54.245 8.125636
54.250 8.74878
54.255 8.885205
54.260 9.201413
54.265 9.071411
54.270 9.368363
54.275 9.367372
54.280 9.107367
54.285 9.113561
54.290 9.335155
54.295 9.383868
54.300 9.395175
54.305 9.304868
54.310 9.126943
54.315 8.888025
54.320 8.444075
54.325 7.952985
54.330 7.862183
54.335 8.005926
54.340 7.620898
54.345 7.296135
54.350 7.220069
54.355 7.401573
54.360 7.918506
54.365 7.892241
54.370 8.109185
54.375 8.439904
54.380 8.859954
54.385 9.069611
54.390 8.555392
54.395 8.5588
54.400 8.416333
54.405 8.043475
54.410 8.157621
54.415 8.144784
54.420 8.014606
54.425 7.824949
54.430 7.448128
54.435 7.300162
54.440 7.210052
54.445 7.210711
54.450 6.827149
54.455 7.241613
54.460 7.531461
54.465 7.437701
54.470 7.583437
54.475 7.484098
54.480 7.413971
54.485 7.477553
54.490 7.303487
54.495 7.344667
54.500 7.62017
54.505 7.667282
54.510 7.634349
54.515 7.787432
54.520 8.090851
54.525 8.385624
54.530 8.299383
54.535 8.199783
54.540 8.354402
54.545 8.457938
54.550 8.144601
54.555 7.705383
54.560 7.453427
54.565 7.532376
54.570 7.464926
54.575 7.423064
54.580 7.395784
54.585 7.64027
54.590 7.626061
54.595 7.695742
54.600 7.640801
54.605 7.557185
54.610 7.404631
54.615 7.268244
54.620 7.590368
54.625 7.620229
54.630 7.637647
54.635 7.44973
54.640 7.363454
54.645 7.423805
54.650 7.363755
54.655 6.863218
54.660 6.893422
54.665 6.91649
54.670 7.064075
54.675 6.926431
54.680 6.790928
54.685 6.933662
54.690 7.191703
54.695 7.028496
54.700 6.966749
54.705 6.726852
54.710 7.259642
54.715 7.618795
54.720 7.224223
54.725 6.979328
54.730 7.450171
54.735 7.616883
54.740 7.825615
54.745 7.468666
54.750 7.170932
54.755 7.447139
54.760 7.251869
54.765 6.932218
54.770 6.925117
54.775 6.758273
54.780 7.177414
54.785 7.543611
54.790 7.521526
54.795 7.477398
54.800 7.282533
54.805 7.347241
54.810 7.341621
54.815 7.254564
54.820 7.320618
54.825 7.503738
54.830 7.561997
54.835 7.526187
54.840 7.621136
54.845 7.536271
54.850 8.091868
54.855 8.348967
54.860 8.654823
54.865 9.207594
54.870 9.939489
54.875 10.515414
54.880 10.750255
54.885 10.206079
54.890 10.289173
54.895 10.26173
54.900 9.988009
54.905 9.436047
54.910 9.257056
54.915 9.240126
54.920 9.256034
54.925 8.911987
54.930 8.778522
54.935 8.817008
54.940 8.771407
54.945 8.792648
54.950 8.694083
54.955 8.343046
54.960 8.804016
54.965 8.954408
54.970 8.940751
54.975 8.767967
54.980 8.253176
54.985 8.495535
54.990 8.916571
54.995 8.393119
55.000 8.150472
55.005 8.319805
55.010 8.536679
55.015 8.898945
55.020 9.03716
55.025 9.13792
55.030 9.4498
55.035 10.162352
55.040 10.199742
55.045 10.025937
55.050 9.814498
55.055 9.070926
55.060 9.140222
55.065 8.555824
55.070 8.365402
55.075 8.827731
55.080 8.693484
55.085 8.70234
55.090 8.854525
55.095 8.518595
55.100 8.984251
55.105 8.724327
55.110 8.734943
55.115 9.234213
55.120 9.338873
55.125 9.091939
55.130 8.975372
55.135 8.960497
55.140 9.026762
55.145 8.789899
55.150 8.827427
55.155 9.216022
55.160 9.453035
55.165 9.12809
55.170 8.307081
55.175 7.834462
55.180 7.805776
55.185 7.668644
55.190 7.500272
55.195 7.479692
55.200 7.818128
55.205 8.053832
55.210 7.847017
55.215 7.900086
55.220 7.519869
55.225 7.504471
55.230 7.866408
55.235 8.011858
55.240 8.20404
55.245 8.419714
55.250 8.033
55.255 7.881122
55.260 7.885812
55.265 7.725983
55.270 7.729746
55.275 7.66215
55.280 7.728362
55.285 8.066997
55.290 8.002672
55.295 7.80694
55.300 7.747695
55.305 7.39573
55.310 7.273604
55.315 7.108514
55.320 7.075354
55.325 7.320133
55.330 7.446627
55.335 7.294429
55.340 7.693093
55.345 7.887373
55.350 7.530102
55.355 7.308775
55.360 7.355701
55.365 7.619367
55.370 7.907526
55.375 7.810975
55.380 8.088659
55.385 8.462933
55.390 8.314402
55.395 8.413799
55.400 8.135563
55.405 8.035638
55.410 7.644091
55.415 7.394316
55.420 7.433119
55.425 7.795899
55.430 7.72546
55.435 7.608883
55.440 7.647675
55.445 7.732341
55.450 8.115678
55.455 8.071277
55.460 8.064258
55.465 8.374218
55.470 8.425004
55.475 8.268688
55.480 8.239469
55.485 8.027064
55.490 7.875062
55.495 7.106785
55.500 6.982315
55.505 7.249828
55.510 6.961886
55.515 6.810491
55.520 6.904994
55.525 7.225507
55.530 7.605722
55.535 7.885061
55.540 7.970237
55.545 8.273293
55.550 8.330909
55.555 8.524792
55.560 8.692461
55.565 8.665746
55.570 8.600689
55.575 8.724182
55.580 8.916985
55.585 8.662151
55.590 8.050946
55.595 7.899181
55.600 7.744771
55.605 7.572062
55.610 7.32129
55.615 7.321703
55.620 7.801242
55.625 8.283748
55.630 8.379609
55.635 8.73173
55.640 8.578139
55.645 8.594057
55.650 8.353233
55.655 8.097649
55.660 7.683686
55.665 7.383415
55.670 7.220955
55.675 7.143806
55.680 7.013713
55.685 7.409595
55.690 7.628173
55.695 8.20209
55.700 8.033916
55.705 7.963557
55.710 8.173114
55.715 7.963659
55.720 7.793593
55.725 7.414836
55.730 6.827496
55.735 7.0862
55.740 6.920869
55.745 7.037869
55.750 7.185937
55.755 6.944834
55.760 7.198689
55.765 7.560742
55.770 7.485832
55.775 7.493696
55.780 7.795714
55.785 8.018851
55.790 8.288049
55.795 8.144569
55.800 8.435877
55.805 8.312302
55.810 8.579728
55.815 8.443091
55.820 8.794922
55.825 9.132837
55.830 9.372538
55.835 9.35568
55.840 9.150182
55.845 8.745404
55.850 8.953127
55.855 8.604254
55.860 8.192087
55.865 7.599043
55.870 7.762339
55.875 8.197268
55.880 8.303024
55.885 8.130855
55.890 7.981341
55.895 8.076083
55.900 8.212248
55.905 7.540586
55.910 7.398665
55.915 7.413587
55.920 7.408182
55.925 7.843618
55.930 7.999989
55.935 8.182445
55.940 8.686549
55.945 8.964759
55.950 8.763433
55.955 8.261525
55.960 7.853643
55.965 8.016815
55.970 7.914284
55.975 7.438179
55.980 7.122083
55.985 7.199422
55.990 7.178162
55.995 6.91244
56.000 6.938341
56.005 7.329735
56.010 7.759033
56.015 7.757875
56.020 7.698641
56.025 7.772977
56.030 7.663571
56.035 7.470932
56.040 7.415808
56.045 7.502335
56.050 7.391339
56.055 7.66284
56.060 7.700817
56.065 7.739554
56.070 7.922607
56.075 7.66288
56.080 7.411374
56.085 7.771551
56.090 8.159843
56.095 8.69874
56.100 8.375804
56.105 8.040468
56.110 8.358997
56.115 8.20246
56.120 8.054412
56.125 7.5649
56.130 7.471059
56.135 7.993791
56.140 7.937812
56.145 8.039349
56.150 7.884962
56.155 7.784997
56.160 8.191766
56.165 7.985161
56.170 8.204833
56.175 8.394516
56.180 8.341841
56.185 8.568596
56.190 8.56671
56.195 8.528108
56.200 8.128307
56.205 7.699215
56.210 8.092165
56.215 8.170154
56.220 8.483617
56.225 8.221875
56.230 8.631447
56.235 9.126536
56.240 8.834821
56.245 8.298395
56.250 8.321313
56.255 8.094361
56.260 8.187909
56.265 8.101349
56.270 8.176997
56.275 8.20443
56.280 8.196365
56.285 7.960362
56.290 8.117522
56.295 8.160633
56.300 7.962245
56.305 8.362553
56.310 8.686234
56.315 8.39321
56.320 8.288801
56.325 8.172194
56.330 8.59229
56.335 8.719539
56.340 8.391153
56.345 8.450696
56.350 8.729127
56.355 8.74718
56.360 8.656859
56.365 8.485949
56.370 8.545547
56.375 8.40219
56.380 8.528643
56.385 8.802825
56.390 8.712942
56.395 8.54382
56.400 7.97107
56.405 7.496823
56.410 7.502031
56.415 7.208297
56.420 7.133301
56.425 7.514707
56.430 7.884976
56.435 7.973353
56.440 8.435008
56.445 8.488895
56.450 8.512504
56.455 8.514369
56.460 8.203238
56.465 8.28827
56.470 8.616682
56.475 8.422815
56.480 8.371806
56.485 8.725941
56.490 9.373698
56.495 9.636965
56.500 10.102249
56.505 10.451582
56.510 11.10975
56.515 11.416132
56.520 11.295252
56.525 11.631052
56.530 11.438673
56.535 10.835637
56.540 10.440155
56.545 9.867051
56.550 9.803301
56.555 9.688698
56.560 9.234751
56.565 9.044338
56.570 8.859408
56.575 8.821971
56.580 8.803537
56.585 8.977384
56.590 8.818521
56.595 8.819345
56.600 8.818137
56.605 8.841024
56.610 9.038609
56.615 9.110473
56.620 9.089918
56.625 8.885481
56.630 8.396742
56.635 8.386098
56.640 8.82122
56.645 8.74943
56.650 8.571294
56.655 8.456669
56.660 8.784201
56.665 8.828531
56.670 9.081206
56.675 8.721738
56.680 8.770851
56.685 8.689078
56.690 8.711526
56.695 8.486625
56.700 8.829608
56.705 8.735368
56.710 9.148899
56.715 8.635783
56.720 8.765608
56.725 8.706317
56.730 8.557596
56.735 8.612669
56.740 8.175096
56.745 7.911252
56.750 8.520239
56.755 8.607582
56.760 8.942507
56.765 9.055807
56.770 8.791634
56.775 8.812568
56.780 9.134944
56.785 9.00181
56.790 9.03216
56.795 8.885874
56.800 8.528747
56.805 8.632414
56.810 8.821659
56.815 8.546276
56.820 8.350093
56.825 8.166049
56.830 8.198492
56.835 8.330994
56.840 8.127912
56.845 8.042871
56.850 8.08108
56.855 8.159605
56.860 7.997031
56.865 7.875111
56.870 7.905608
56.875 7.732736
56.880 7.41221
56.885 7.282696
56.890 7.058383
56.895 6.968492
56.900 7.298294
56.905 7.679253
56.910 8.129978
56.915 8.281259
56.920 8.354913
56.925 8.654496
56.930 8.764895
56.935 8.401192
56.940 8.11044
56.945 8.024418
56.950 8.105456
56.955 8.322624
56.960 8.256617
56.965 8.445462
56.970 8.454593
56.975 8.856352
56.980 8.859942
56.985 8.8606
56.990 8.555152
56.995 8.404757
57.000 8.450656
57.005 8.181749
57.010 7.945314
57.015 8.006614
57.020 7.643791
57.025 7.154325
57.030 6.699144
57.035 6.78023
57.040 7.403291
57.045 7.745063
57.050 8.071433
57.055 8.660509
57.060 9.309286
57.065 9.571135
57.070 9.483797
57.075 9.073061
57.080 8.934578
57.085 8.736546
57.090 8.608396
57.095 8.60802
57.100 8.83638
57.105 8.49767
57.110 8.491908
57.115 8.066765
57.120 8.081493
57.125 7.889153
57.130 7.934294
57.135 7.99539
57.140 8.148229
57.145 8.403297
57.150 8.221431
57.155 8.470026
57.160 8.620155
57.165 8.855292
57.170 9.048334
57.175 9.386166
57.180 9.16145
57.185 9.239184
57.190 9.079255
57.195 9.011117
57.200 8.490352
57.205 7.981532
57.210 7.226884
57.215 6.864617
57.220 6.814271
57.225 6.523372
57.230 6.567561
57.235 6.624179
57.240 6.713666
57.245 7.150048
57.250 7.333049
57.255 7.390285
57.260 7.605414
57.265 7.637076
57.270 8.011989
57.275 8.095199
57.280 7.785285
57.285 7.942942
57.290 7.864839
57.295 7.872053
57.300 8.117145
57.305 7.95357
57.310 8.261405
57.315 8.659664
57.320 8.751036
57.325 8.838398
57.330 8.720107
57.335 8.26909
57.340 7.980144
57.345 8.000602
57.350 7.915682
57.355 7.53128
57.360 7.49146
57.365 7.59155
57.370 7.600551
57.375 7.864826
57.380 7.761746
57.385 7.658655
57.390 7.627285
57.395 7.999914
57.400 8.145307
57.405 7.914341
57.410 7.500525
57.415 7.476285
57.420 8.051569
57.425 8.190515
57.430 8.057222
57.435 8.313774
57.440 8.462203
57.445 8.480935
57.450 8.188694
57.455 7.364119
57.460 7.066106
57.465 6.772903
57.470 6.614413
57.475 6.580071
57.480 6.942766
57.485 7.633092
57.490 7.896362
57.495 8.279025
57.500 8.270223
57.505 8.365195
57.510 8.569972
57.515 8.665098
57.520 8.501965
57.525 8.465272
57.530 8.45989
57.535 8.586329
57.540 8.349912
57.545 8.328741
57.550 8.100913
57.555 8.324654
57.560 8.356426
57.565 7.958406
57.570 7.733716
57.575 8.131027
57.580 8.040256
57.585 7.969577
57.590 7.910125
57.595 8.158192
57.600 8.501966
57.605 8.602049
57.610 8.148051
57.615 8.094425
57.620 7.829436
57.625 8.082724
57.630 7.903373
57.635 7.851339
57.640 7.785707
57.645 8.289455
57.650 8.455544
57.655 8.692367
57.660 8.716591
57.665 8.376007
57.670 8.207752
57.675 8.259442
57.680 7.896021
57.685 7.821118
57.690 7.492708
57.695 7.419154
57.700 7.568993
57.705 7.615362
57.710 7.254058
57.715 7.246686
57.720 7.227914
57.725 7.311799
57.730 7.047232
57.735 7.511786
57.740 7.975071
57.745 8.234087
57.750 8.571634
57.755 8.993839
57.760 9.237893
57.765 9.374475
57.770 8.856159
57.775 8.790673
57.780 8.665547
57.785 8.758233
57.790 8.503489
57.795 8.405729
57.800 8.393584
57.805 8.533166
57.810 8.548307
57.815 8.775963
57.820 8.448666
57.825 8.421329
57.830 8.350299
57.835 8.672619
57.840 8.939136
57.845 8.563851
57.850 8.114216
57.855 8.241268
57.860 8.041477
57.865 8.481164
57.870 8.456456
57.875 8.285555
57.880 8.330689
57.885 8.609
57.890 8.589603
57.895 8.853151
57.900 8.410054
57.905 8.288183
57.910 8.317428
57.915 8.345336
57.920 8.287886
57.925 8.10831
57.930 7.703343
57.935 7.478365
57.940 7.403547
57.945 7.537951
57.950 7.769765
57.955 7.513186
57.960 7.479861
57.965 7.499989
57.970 7.48282
57.975 7.402701
57.980 7.324936
57.985 7.103613
57.990 7.572068
57.995 7.763608
58.000 8.422026
58.005 9.084285
58.010 9.303082
58.015 9.441989
58.020 9.416409
58.025 9.367399
58.030 9.385338
58.035 8.838267
58.040 8.609703
58.045 8.551398
58.050 8.358413
58.055 8.228957
58.060 7.912151
58.065 7.74817
58.070 7.675262
58.075 8.182965
58.080 8.199222
58.085 8.280716
58.090 8.452495
58.095 8.871183
58.100 9.24145
58.105 9.05987
58.110 8.644977
58.115 8.756599
58.120 8.939725
58.125 9.116815
58.130 8.906387
58.135 8.906567
58.140 8.863823
58.145 8.894357
58.150 9.29655
58.155 8.908031
58.160 8.590895
58.165 8.507749
58.170 8.751446
58.175 8.897444
58.180 8.557388
58.185 8.351191
58.190 8.793038
58.195 8.705114
58.200 8.853209
58.205 8.698271
58.210 8.603125
58.215 8.530839
58.220 8.402722
58.225 8.195205
58.230 8.390351
58.235 8.036312
58.240 8.283674
58.245 8.603089
58.250 8.602235
58.255 8.351031
58.260 8.436863
58.265 8.465899
58.270 8.565605
58.275 8.375155
58.280 8.363337
58.285 8.421988
58.290 8.587856
58.295 8.657746
58.300 8.696117
58.305 8.842726
58.310 8.879995
58.315 8.730382
58.320 8.381393
58.325 8.596139
58.330 8.471198
58.335 8.190003
58.340 8.241109
58.345 7.674932
58.350 7.645963
58.355 7.913002
58.360 7.845582
58.365 7.982968
58.370 8.11586
58.375 7.762479
58.380 7.9611
58.385 8.27669
58.390 8.183375
58.395 7.928298
58.400 7.849006
58.405 8.07341
58.410 8.25604
58.415 8.263291
58.420 7.714736
58.425 7.753742
58.430 7.760306
58.435 7.843881
58.440 7.675809
58.445 7.48778
58.450 7.582224
58.455 7.919673
58.460 7.904773
58.465 8.235329
58.470 8.34127
58.475 8.330556
58.480 8.433711
58.485 8.491023
58.490 8.538921
58.495 8.300631
58.500 7.763093
58.505 7.618454
58.510 7.841747
58.515 7.708444
58.520 7.594988
58.525 7.769805
58.530 8.222377
58.535 8.50699
58.540 7.998199
58.545 7.714378
58.550 7.821487
58.555 7.653823
58.560 7.479848
58.565 7.727293
58.570 7.892361
58.575 8.037218
58.580 8.207907
58.585 8.026112
58.590 8.357283
58.595 8.522104
58.600 8.159839
58.605 8.038411
58.610 8.243979
58.615 7.828638
58.620 7.987461
58.625 7.906982
58.630 7.760011
58.635 7.495774
58.640 7.658256
58.645 8.091433
58.650 8.74923
58.655 8.967541
58.660 9.3528
58.665 9.750014
58.670 9.980974
58.675 9.762859
58.680 9.458622
58.685 9.318263
58.690 9.458264
58.695 9.22197
58.700 8.579258
58.705 8.062694
58.710 8.22317
58.715 8.157337
58.720 7.854902
58.725 7.625384
58.730 7.417156
58.735 7.851003
58.740 8.351911
58.745 8.273911
58.750 8.122467
58.755 8.131084
58.760 8.185627
58.765 8.614452
58.770 8.742139
58.775 8.476607
58.780 8.534155
58.785 9.088102
58.790 9.167846
58.795 8.78314
58.800 8.476601
58.805 8.409241
58.810 8.233578
58.815 8.598116
58.820 8.557822
58.825 8.772961
58.830 8.766764
58.835 8.364507
58.840 8.170551
58.845 8.412173
58.850 7.919018
58.855 7.485851
58.860 7.565609
58.865 7.989146
58.870 8.174275
58.875 8.369555
58.880 8.726831
58.885 8.904912
58.890 9.18374
58.895 9.056211
58.900 9.020888
58.905 9.467944
58.910 9.379022
58.915 9.163082
58.920 9.233629
58.925 9.06771
58.930 9.438597
58.935 9.438781
58.940 8.81617
58.945 8.927417
58.950 8.795986
58.955 8.612102
58.960 8.624461
58.965 8.113908
58.970 7.714839
58.975 8.314751
58.980 8.367478
58.985 8.223203
58.990 8.298771
58.995 8.216802
59.000 8.368328
59.005 8.888665
59.010 8.928338
59.015 8.747273
59.020 8.665728
59.025 8.641099
59.030 8.493445
59.035 8.604139
59.040 8.408107
59.045 8.317674
59.050 8.25768
59.055 8.406535
59.060 8.740964
59.065 8.92485
59.070 8.669908
59.075 8.612661
59.080 8.646245
59.085 8.79527
59.090 8.659929
59.095 8.299201
59.100 8.187345
59.105 8.681053
59.110 9.080264
59.115 8.876465
59.120 8.64733
59.125 8.859296
59.130 8.774351
59.135 8.535348
59.140 8.092221
59.145 7.732139
59.150 7.962224
59.155 8.002396
59.160 7.657946
59.165 7.911919
59.170 8.068595
59.175 8.067387
59.180 8.242872
59.185 8.273743
59.190 8.069215
59.195 8.030495
59.200 8.003311
59.205 8.394372
59.210 8.333479
59.215 8.178345
59.220 8.052552
59.225 8.323923
59.230 8.376063
59.235 8.63119
59.240 8.523338
59.245 8.741207
59.250 8.630647
59.255 8.538558
59.260 8.348287
59.265 8.388812
59.270 7.737728
59.275 7.837537
59.280 7.720689
59.285 7.581697
59.290 7.744708
59.295 8.184813
59.300 8.149282
59.305 8.423915
59.310 8.27203
59.315 8.191489
59.320 8.356002
59.325 8.385332
59.330 8.540154
59.335 9.012005
59.340 9.058352
59.345 8.662043
59.350 8.737655
59.355 8.805251
59.360 9.162393
59.365 8.849174
59.370 8.308051
59.375 8.203782
59.380 8.441878
59.385 8.526167
59.390 8.643034
59.395 8.24361
59.400 8.393521
59.405 8.157124
59.410 8.173946
59.415 8.031827
59.420 8.265244
59.425 7.726539
59.430 7.688437
59.435 7.479887
59.440 7.642972
59.445 7.663711
59.450 7.986848
59.455 7.731353
59.460 7.713071
59.465 7.831475
59.470 8.156776
59.475 8.286757
59.480 8.543002
59.485 8.388756
59.490 8.819987
59.495 9.370203
59.500 9.260507
59.505 8.692194
59.510 8.637676
59.515 8.801549
59.520 8.775076
59.525 8.229639
59.530 7.884341
59.535 7.677566
59.540 8.308797
59.545 8.138024
59.550 8.171221
59.555 8.360292
59.560 8.691881
59.565 8.916828
59.570 9.274918
59.575 8.726324
59.580 8.972754
59.585 8.947872
59.590 8.982393
59.595 9.056503
59.600 8.805072
59.605 8.803103
59.610 9.201878
59.615 8.849891
59.620 8.48221
59.625 8.19826
59.630 7.867036
59.635 7.922869
59.640 7.925429
59.645 8.146448
59.650 8.748143
59.655 8.994381
59.660 9.329447
59.665 9.941103
59.670 10.05975
59.675 10.504968
59.680 10.34312
59.685 10.112164
59.690 10.075742
59.695 10.394712
59.700 10.528314
59.705 10.258322
59.710 9.72017
59.715 9.69362
59.720 9.697412
59.725 9.66017
59.730 9.416113
59.735 9.004079
59.740 9.242264
59.745 9.244409
59.750 9.173587
59.755 9.257432
59.760 9.171648
59.765 9.013694
59.770 9.072358
59.775 9.205014
59.780 9.296875
59.785 9.523358
59.790 9.646635
59.795 9.935082
59.800 9.794568
59.805 9.710151
59.810 9.708867
59.815 9.699295
59.820 9.470049
59.825 8.87348
59.830 8.511339
59.835 8.209471
59.840 8.290747
59.845 8.077588
59.850 8.254837
59.855 8.205381
59.860 8.564205
59.865 8.823298
59.870 9.041523
59.875 9.620973
59.880 9.953002
59.885 9.853918
59.890 10.097409
59.895 10.122843
59.900 9.942862
59.905 9.848587
59.910 8.941934
59.915 8.274094
59.920 8.223212
59.925 8.022214
59.930 8.059256
59.935 7.62191
59.940 7.497959
59.945 8.001163
59.950 8.679724
59.955 8.647733
59.960 8.50804
59.965 8.432345
59.970 8.914342
59.975 8.964715
59.980 9.00489
59.985 9.373826
59.990 9.513922
59.995 9.732048
60.000 9.53969
60.005 9.669296
60.010 9.820551
60.015 9.522549
60.020 8.564608
60.025 8.256257
60.030 8.207877
60.035 8.3717
60.040 8.513741
60.045 8.775119
60.050 8.871297
60.055 9.020945
60.060 9.277869
60.065 9.341279
60.070 9.093828
60.075 8.65193
60.080 8.177765
60.085 8.085942
60.090 8.362706
60.095 8.010378
60.100 7.861955
60.105 7.96873
60.110 7.781007
60.115 7.622387
60.120 7.5509
60.125 7.36825
60.130 7.669689
60.135 7.846861
60.140 8.246966
60.145 8.750431
60.150 8.838671
60.155 8.792339
60.160 8.547146
60.165 7.961276
60.170 7.762604
60.175 7.893493
60.180 7.73772
60.185 7.788966
60.190 7.839883
60.195 8.046966
60.200 8.287139
60.205 8.137608
60.210 7.833796
60.215 7.639202
60.220 7.166544
60.225 7.111246
60.230 7.147712
60.235 7.229584
60.240 7.353989
60.245 7.220451
60.250 7.348215
60.255 7.738473
60.260 7.538109
60.265 7.735588
60.270 7.867927
60.275 7.683524
60.280 7.873984
60.285 8.353415
60.290 8.465104
60.295 8.848406
60.300 9.138423
60.305 9.464339
60.310 9.825375
60.315 9.704455
60.320 9.240981
60.325 8.833967
60.330 8.836602
60.335 8.416048
60.340 7.832407
60.345 7.584423
60.350 7.63637
60.355 7.947483
60.360 8.143987
60.365 8.411563
60.370 8.5137
60.375 8.863968
60.380 9.274412
60.385 9.460118
60.390 9.417641
60.395 9.831841
60.400 9.291981
60.405 8.806504
60.410 8.538186
60.415 8.116973
60.420 7.488631
60.425 7.041305
60.430 6.84028
60.435 6.727604
60.440 7.096682
60.445 7.144712
60.450 6.972662
60.455 7.230296
60.460 7.769881
60.465 7.473758
60.470 7.677203
60.475 7.51294
60.480 7.115954
60.485 7.134123
60.490 6.728525
60.495 6.47282
60.500 6.707418
60.505 7.035903
60.510 7.139306
60.515 7.947725
60.520 8.429858
60.525 8.648563
60.530 8.816442
60.535 8.795074
60.540 8.288507
60.545 8.038087
60.550 7.489071
60.555 7.703729
60.560 8.083228
60.565 7.939045
60.570 7.949812
60.575 8.279328
60.580 8.558728
60.585 8.33665
60.590 8.233816
60.595 8.266415
60.600 8.122372
60.605 7.826623
60.610 7.793657
60.615 7.72512
60.620 8.173838
60.625 8.233863
60.630 7.894893
60.635 8.066822
60.640 7.984094
60.645 7.840282
60.650 8.149736
60.655 7.739975
60.660 7.472545
60.665 7.286446
60.670 7.121084
60.675 6.923273
60.680 6.854192
60.685 6.781061
60.690 6.913787
60.695 6.763521
60.700 6.592877
60.705 6.860081
60.710 7.491658
60.715 7.614789
60.720 7.366316
60.725 7.534136
60.730 8.105051
60.735 8.373403
60.740 8.710772
60.745 8.656108
60.750 8.478016
60.755 8.450507
60.760 8.060843
60.765 8.056186
60.770 8.126542
60.775 7.687277
60.780 7.375752
60.785 7.371263
60.790 7.341773
60.795 7.537615
60.800 7.445502
60.805 7.445734
60.810 8.063357
60.815 8.803361
60.820 9.361917
60.825 9.431685
60.830 9.296603
60.835 9.573327
60.840 9.369423
60.845 8.509064
60.850 8.031078
60.855 7.379033
60.860 7.241033
60.865 7.125692
60.870 6.815549
60.875 7.009142
60.880 7.661179
60.885 7.776738
60.890 7.882953
60.895 8.085363
60.900 8.04274
60.905 7.964772
60.910 8.057889
60.915 7.613746
60.920 7.701789
60.925 8.096723
60.930 8.186926
60.935 8.121652
60.940 8.219442
60.945 8.195249
60.950 8.420613
60.955 8.239687
60.960 8.009731
60.965 8.224682
60.970 8.819152
60.975 8.952075
60.980 8.936414
60.985 8.706331
60.990 8.746814
60.995 8.834817
61.000 8.714815
61.005 8.064941
61.010 7.820746
61.015 7.711514
61.020 7.859542
61.025 7.917502
61.030 7.894805
61.035 8.109637
61.040 8.335608
61.045 8.491934
61.050 8.504575
61.055 8.674722
61.060 8.698716
61.065 8.436172
61.070 8.0753
61.075 8.350101
61.080 8.644049
61.085 8.700853
61.090 8.606181
61.095 8.127822
61.100 8.111801
61.105 8.289101
61.110 8.145194
61.115 7.917702
61.120 8.102098
61.125 7.793998
61.130 7.929813
61.135 7.721704
61.140 7.676371
61.145 7.354213
61.150 7.107686
61.155 6.723234
61.160 6.76334
61.165 7.028508
61.170 7.607141
61.175 7.532022
61.180 7.576285
61.185 7.797471
61.190 8.252751
61.195 8.56034
61.200 8.910821
61.205 9.092671
61.210 9.107887
61.215 8.988331
61.220 8.549588
61.225 8.095302
61.230 8.19596
61.235 7.877578
61.240 7.642198
61.245 7.737361
61.250 8.157862
61.255 8.495648
61.260 8.639791
61.265 8.293213
61.270 8.314792
61.275 8.287146
61.280 8.276286
61.285 8.058
61.290 8.071899
61.295 7.917239
61.300 7.852425
61.305 7.713766
61.310 7.539824
61.315 7.512777
61.320 7.793248
61.325 7.652993
61.330 7.854387
61.335 8.100423
61.340 8.820047
61.345 9.151515
61.350 8.929765
61.355 8.52714
61.360 8.503338
61.365 8.480719
61.370 8.15917
61.375 7.385757
61.380 7.00476
61.385 7.497187
61.390 8.040124
61.395 8.241134
61.400 8.465811
61.405 8.961516
61.410 9.325795
61.415 9.305013
61.420 9.072162
61.425 8.850529
61.430 8.968419
61.435 8.940317
61.440 8.669573
61.445 8.286818
61.450 8.510516
61.455 8.310509
61.460 8.207447
61.465 8.184118
61.470 8.0869
61.475 8.284469
61.480 8.524641
61.485 8.473296
61.490 8.946021
61.495 8.981596
61.500 8.959627
61.505 8.955592
61.510 8.794767
61.515 8.650133
61.520 8.63032
61.525 8.519758
61.530 8.548294
61.535 8.315548
61.540 7.838362
61.545 7.715988
61.550 7.632705
61.555 7.391465
61.560 7.087193
61.565 6.839567
61.570 6.936841
61.575 7.547994
61.580 7.601362
61.585 7.562408
61.590 7.343264
61.595 7.354611
61.600 7.077008
61.605 6.98297
61.610 6.729912
61.615 6.656082
61.620 6.836777
61.625 7.057446
61.630 7.231909
61.635 7.354451
61.640 7.17403
61.645 7.203728
61.650 7.162498
61.655 7.228685
61.660 6.977195
61.665 6.840436
61.670 7.122954
61.675 7.214228
61.680 7.272576
61.685 7.520136
61.690 7.266036
61.695 7.399054
61.700 7.51221
61.705 7.576768
61.710 8.025145
61.715 8.137158
61.720 8.187766
61.725 8.176476
61.730 8.299309
61.735 8.451016
61.740 8.021268
61.745 7.730336
61.750 7.862906
61.755 8.144464
61.760 8.656383
61.765 8.77097
61.770 9.064117
61.775 9.376193
61.780 9.501527
61.785 9.024858
61.790 8.862993
61.795 8.814354
61.800 8.825898
61.805 8.515325
61.810 8.793889
61.815 8.547842
61.820 8.681859
61.825 8.654549
61.830 8.558005
61.835 8.440278
61.840 8.432255
61.845 7.968747
61.850 8.176908
61.855 8.197165
61.860 7.928925
61.865 7.847572
61.870 7.955838
61.875 7.959677
61.880 7.965549
61.885 7.800158
61.890 7.874513
61.895 7.960677
61.900 7.846102
61.905 7.755997
61.910 7.887277
61.915 7.974156
61.920 8.139007
61.925 8.212499
61.930 8.335337
61.935 8.923033
61.940 9.206549
61.945 9.150945
61.950 9.307631
61.955 9.338921
61.960 9.511721
61.965 9.05945
61.970 8.758602
61.975 8.391854
61.980 8.232207
61.985 7.860186
61.990 7.769037
61.995 7.558722
62.000 8.163811
62.005 8.178053
62.010 8.30015
62.015 8.628778
62.020 8.985687
62.025 8.874579
62.030 9.133322
62.035 9.032961
62.040 8.768327
62.045 8.565876
62.050 8.068306
62.055 8.238441
62.060 8.201219
62.065 7.936134
62.070 8.214092
62.075 8.451811
62.080 8.538951
62.085 8.876688
62.090 9.017713
62.095 9.413646
62.100 9.35086
62.105 9.267748
62.110 9.476519
62.115 9.832644
62.120 9.914113
62.125 9.429447
62.130 9.119796
62.135 9.388714
62.140 9.389001
62.145 9.468178
62.150 9.136558
62.155 8.968049
62.160 9.166763
62.165 9.317935
62.170 9.45937
62.175 8.90987
62.180 8.926622
62.185 8.805368
62.190 8.958491
62.195 8.892415
62.200 8.433738
62.205 8.20631
62.210 8.515636
62.215 8.486042
62.220 8.475485
62.225 8.313654
62.230 8.062261
62.235 8.301655
62.240 7.977323
62.245 8.148202
62.250 8.335536
62.255 8.450552
62.260 8.725841
62.265 9.048738
62.270 9.225949
62.275 9.765907
62.280 9.551003
62.285 9.424566
62.290 9.562796
62.295 9.219983
62.300 8.980546
62.305 8.624458
62.310 8.177732
62.315 7.76992
62.320 7.489751
62.325 7.366364
62.330 7.532996
62.335 7.662185
62.340 7.870995
62.345 7.800445
62.350 7.703774
62.355 8.084931
62.360 8.006825
62.365 8.257109
62.370 8.31546
62.375 8.309112
62.380 8.905568
62.385 8.959817
62.390 8.797077
62.395 8.841475
62.400 8.57116
62.405 8.616392
62.410 8.856145
62.415 8.583432
62.420 8.551032
62.425 8.453323
62.430 8.716063
62.435 8.832211
62.440 8.795887
62.445 8.791848
62.450 9.061525
62.455 9.542496
62.460 9.827371
62.465 9.95163
62.470 10.029979
62.475 10.06074
62.480 9.745238
62.485 9.380602
62.490 9.091607
62.495 8.675048
62.500 8.154818
62.505 7.776718
62.510 7.446835
62.515 7.435446
62.520 7.198012
62.525 7.350043
62.530 7.594519
62.535 7.759067
62.540 8.000649
62.545 8.103709
62.550 7.95646
62.555 8.166965
62.560 8.090099
62.565 7.94137
62.570 8.20045
62.575 7.943281
62.580 7.876027
62.585 8.384868
62.590 8.704227
62.595 9.050447
62.600 9.192946
62.605 9.01967
62.610 9.274911
62.615 9.331688
62.620 9.072489
62.625 8.984297
62.630 8.965631
62.635 9.386084
62.640 9.828269
62.645 10.121494
62.650 10.156582
62.655 10.133704
62.660 9.804095
62.665 9.784039
62.670 9.71615
62.675 9.440605
62.680 9.742142
62.685 9.689042
62.690 10.078382
62.695 10.216064
62.700 10.27066
62.705 9.884746
62.710 9.911716
62.715 9.694331
62.720 9.71259
62.725 9.5574
62.730 9.751092
62.735 9.840242
62.740 10.348493
62.745 10.485847
62.750 10.576278
62.755 10.639985
62.760 10.734176
62.765 10.49216
62.770 10.423735
62.775 10.175084
62.780 9.950008
62.785 9.887966
62.790 10.050216
62.795 9.968863
62.800 9.827064
62.805 9.783472
62.810 9.456625
62.815 9.698539
62.820 9.490646
62.825 9.178085
62.830 9.202708
62.835 9.402823
62.840 9.628042
62.845 10.006705
62.850 9.974481
62.855 9.781134
62.860 9.85144
62.865 9.706455
62.870 9.56671
62.875 9.352127
62.880 9.05924
62.885 8.798836
62.890 9.073988
62.895 9.080204
62.900 9.208806
62.905 9.58859
62.910 9.336731
62.915 9.056447
62.920 9.042305
62.925 8.73158
62.930 8.921865
62.935 9.042508
62.940 8.331802
62.945 8.641173
62.950 8.898916
62.955 9.279583
62.960 9.530847
62.965 9.319708
62.970 9.289768
62.975 9.581669
62.980 9.385475
62.985 8.866301
62.990 8.686174
62.995 8.713458
63.000 8.974631
63.005 8.720118
63.010 8.756683
63.015 8.939302
63.020 9.296011
63.025 9.048765
63.030 8.872847
63.035 8.812113
63.040 8.899964
63.045 8.663627
63.050 8.178782
63.055 7.904746
63.060 7.763707
63.065 7.978729
63.070 8.203025
63.075 8.270505
63.080 8.537825
63.085 8.738881
63.090 8.987882
63.095 9.012652
63.100 8.525709
63.105 7.760736
63.110 7.654049
63.115 7.688752
63.120 7.806284
63.125 7.933791
63.130 8.010351
63.135 8.334783
63.140 8.976733
63.145 8.898083
63.150 8.914742
63.155 9.07175
63.160 8.820089
63.165 8.729451
63.170 8.68135
63.175 8.372097
63.180 8.732904
63.185 8.267916
63.190 7.892966
63.195 7.812833
63.200 7.841565
63.205 7.51694
63.210 7.25855
63.215 6.902709
63.220 7.145825
63.225 7.064906
63.230 7.149709
63.235 7.163872
63.240 7.535854
63.245 7.835402
63.250 7.70087
63.255 8.089965
63.260 8.643069
63.265 8.796703
63.270 8.930751
63.275 8.853052
63.280 8.839793
63.285 8.904863
63.290 8.715995
63.295 8.468367
63.300 8.453676
63.305 8.521968
63.310 8.610374
63.315 8.471611
63.320 8.454745
63.325 8.771901
63.330 8.874125
63.335 8.701743
63.340 8.445124
63.345 8.359982
63.350 8.762851
63.355 8.936134
63.360 8.980206
63.365 8.81146
63.370 8.98745
63.375 9.084728
63.380 9.002572
63.385 9.312398
63.390 9.232802
63.395 9.11494
63.400 9.33615
63.405 9.399878
63.410 9.325856
63.415 9.452023
63.420 9.292111
63.425 9.22648
63.430 9.347361
63.435 9.549085
63.440 9.72398
63.445 9.885986
63.450 9.788658
63.455 9.459834
63.460 9.723037
63.465 9.616012
63.470 9.459869
63.475 9.264156
63.480 9.209132
63.485 9.80653
63.490 10.043062
63.495 9.659854
63.500 9.35111
63.505 9.008554
63.510 9.199486
63.515 8.95955
63.520 8.690599
63.525 8.38153
63.530 8.081626
63.535 8.535174
63.540 8.878352
63.545 8.964327
63.550 9.367717
63.555 9.160933
63.560 9.208658
63.565 9.679522
63.570 9.230425
63.575 8.775822
63.580 8.434662
63.585 7.697629
63.590 7.290676
63.595 7.03788
63.600 6.790932
63.605 7.026376
63.610 7.151549
63.615 7.142694
63.620 7.304472
63.625 7.385225
63.630 7.700284
63.635 7.577329
63.640 7.665388
63.645 7.800679
63.650 7.882086
63.655 8.303229
63.660 8.581927
63.665 8.908315
63.670 9.061077
63.675 8.655281
63.680 8.683694
63.685 8.404329
63.690 7.936631
63.695 7.743761
63.700 7.546279
63.705 7.759709
63.710 7.779429
63.715 8.130145
63.720 8.439421
63.725 8.419199
63.730 8.333525
63.735 8.243249
63.740 8.049397
63.745 8.375665
63.750 7.963444
63.755 7.990745
63.760 7.989347
63.765 7.905933
63.770 7.413061
63.775 7.031416
63.780 6.690991
63.785 6.663625
63.790 6.832603
63.795 7.077133
63.800 7.286476
63.805 7.653317
63.810 8.205226
63.815 8.343453
63.820 8.528396
63.825 8.578899
63.830 8.227942
63.835 8.092019
63.840 7.933214
63.845 7.761343
63.850 7.547736
63.855 7.441124
63.860 7.227202
63.865 7.593755
63.870 7.758924
63.875 7.900375
63.880 7.977669
63.885 8.187203
63.890 8.288206
63.895 8.322446
63.900 8.263639
63.905 8.402837
63.910 8.906879
63.915 8.543463
63.920 8.281632
63.925 8.161499
63.930 8.365646
63.935 8.209102
63.940 7.925594
63.945 7.660337
63.950 8.088294
63.955 8.529535
63.960 9.278753
63.965 9.052193
63.970 9.155268
63.975 9.581045
63.980 9.821152
63.985 10.073013
63.990 9.435275
63.995 9.137685
64.000 9.342931
64.005 9.377977
64.010 9.404401
64.015 9.333788
64.020 9.510354
64.025 9.606993
64.030 9.0342
64.035 9.005198
64.040 9.200105
64.045 9.41055
64.050 8.743791
64.055 8.328753
64.060 8.4026
64.065 8.430964
64.070 8.29677
64.075 8.050597
64.080 7.970542
64.085 8.509282
64.090 8.596287
64.095 8.6418
64.100 8.793766
64.105 9.073707
64.110 8.722213
64.115 8.180125
64.120 8.07282
64.125 8.569373
64.130 8.881991
64.135 8.73274
64.140 8.766108
64.145 9.074243
64.150 9.443169
64.155 9.305604
64.160 8.774667
64.165 8.661511
64.170 8.861295
64.175 9.061622
64.180 8.623745
64.185 8.353568
64.190 8.158393
64.195 8.12413
64.200 8.111786
64.205 8.224131
64.210 8.166275
64.215 8.838068
64.220 9.291553
64.225 9.582663
64.230 9.689658
64.235 9.746528
64.240 9.592867
64.245 9.25629
64.250 8.880734
64.255 8.470037
64.260 8.242455
64.265 8.134962
64.270 8.112593
64.275 8.068074
64.280 8.153866
64.285 7.995935
64.290 7.826272
64.295 7.784268
64.300 7.955073
64.305 8.182451
64.310 8.284394
64.315 8.50238
64.320 8.98111
64.325 9.759689
64.330 9.980453
64.335 9.846502
64.340 9.966456
64.345 9.77248
64.350 9.776329
64.355 9.50466
64.360 8.980433
64.365 8.893948
64.370 8.772753
64.375 8.378151
64.380 8.629283
64.385 8.759313
64.390 8.617055
64.395 8.918577
64.400 9.051967
64.405 9.167124
64.410 9.852213
64.415 9.780506
64.420 9.548275
64.425 9.570344
64.430 9.563909
64.435 9.798138
64.440 10.043119
64.445 9.882293
64.450 10.017072
64.455 10.120381
64.460 10.415469
64.465 10.789084
64.470 10.492334
64.475 10.335051
64.480 10.219398
64.485 10.073379
64.490 9.936255
64.495 9.742278
64.500 9.617596
64.505 9.809841
64.510 9.361007
64.515 8.864309
64.520 9.019947
64.525 9.35322
64.530 9.56906
64.535 9.446443
64.540 9.162766
64.545 9.426412
64.550 9.913991
64.555 9.910028
64.560 9.7665
64.565 9.424454
64.570 9.251234
64.575 9.049392
64.580 8.781212
64.585 8.518651
64.590 8.522893
64.595 8.732517
64.600 8.703477
64.605 8.781808
64.610 8.977189
64.615 9.21619
64.620 9.824714
64.625 9.748775
64.630 9.906403
64.635 10.461716
64.640 10.654552
64.645 10.742818
64.650 10.678579
64.655 10.576999
64.660 10.696427
64.665 10.151412
64.670 9.610053
64.675 9.814845
64.680 9.824528
64.685 9.667115
64.690 9.472662
64.695 9.344454
64.700 9.745977
64.705 9.79602
64.710 9.527986
64.715 9.86229
64.720 10.033809
64.725 10.012437
64.730 10.200258
64.735 10.250649
64.740 10.149161
64.745 10.125524
64.750 9.69777
64.755 9.530604
64.760 8.892074
64.765 8.783305
64.770 8.995358
64.775 8.967921
64.780 8.973977
64.785 9.480121
64.790 10.535255
64.795 11.176634
64.800 11.156863
64.805 11.18315
64.810 11.378383
64.815 11.309859
64.820 10.990094
64.825 10.847917
64.830 10.918718
64.835 10.961832
64.840 10.563552
64.845 10.853255
64.850 11.460889
64.855 11.41407
64.860 11.020884
64.865 10.667688
64.870 10.933291
64.875 11.441647
64.880 11.814592
64.885 11.895261
64.890 12.196699
64.895 12.301371
64.900 12.377559
64.905 12.296245
64.910 12.414212
64.915 12.077478
64.920 12.025458
64.925 11.851539
64.930 11.658929
64.935 12.003632
64.940 12.134875
64.945 11.677136
64.950 11.567818
64.955 11.356997
64.960 11.406841
64.965 11.542733
64.970 11.94232
64.975 12.16273
64.980 12.488328
64.985 12.86895
64.990 13.209011
64.995 12.902819
65.000 12.766281
65.005 12.612512
65.010 12.742773
65.015 12.698548
65.020 13.084947
65.025 13.228409
65.030 13.545571
65.035 13.472807
65.040 13.306448
65.045 13.077723
65.050 12.737668
65.055 12.056912
65.060 11.796652
65.065 11.640543
65.070 11.615334
65.075 11.580215
65.080 11.27692
65.085 11.915282
65.090 12.002491
65.095 12.679525
65.100 13.438451
65.105 13.856117
65.110 14.016307
65.115 14.132994
65.120 13.839229
65.125 14.08589
65.130 13.026268
65.135 12.538234
65.140 12.525466
65.145 12.638447
65.150 12.99924
65.155 13.027821
65.160 12.54308
65.165 13.080302
65.170 13.163674
65.175 12.949783
65.180 12.582177
65.185 12.13348
65.190 11.636897
65.195 11.052001
65.200 10.999988
65.205 11.118711
65.210 11.185768
65.215 11.197403
65.220 11.201708
65.225 11.520963
65.230 11.797957
65.235 11.312272
65.240 10.901791
65.245 10.335061
65.250 9.796306
65.255 9.993721
65.260 9.863439
65.265 9.656343
65.270 10.09933
65.275 10.144957
65.280 10.42645
65.285 10.847266
65.290 10.336642
65.295 9.991395
65.300 9.861482
65.305 9.891001
65.310 9.885127
65.315 9.62575
65.320 9.480602
65.325 9.437495
65.330 9.368202
65.335 9.238809
65.340 9.055488
65.345 9.256402
65.350 9.370712
65.355 9.734409
65.360 10.245268
65.365 10.371001
65.370 10.43631
65.375 10.247785
65.380 10.306944
65.385 10.085834
65.390 9.400565
65.395 9.35761
65.400 9.780004
65.405 9.746157
65.410 9.707469
65.415 9.414348
65.420 9.598404
65.425 9.597208
65.430 9.046389
65.435 9.182657
65.440 9.33621
65.445 9.26925
65.450 9.340093
65.455 9.301741
65.460 9.371742
65.465 9.528497
65.470 8.934489
65.475 9.006647
65.480 9.275907
65.485 9.106662
65.490 8.819858
65.495 8.567386
65.500 8.555014
65.505 8.877996
65.510 8.294444
65.515 8.076407
65.520 8.165323
65.525 8.252288
65.530 8.396253
65.535 8.279188
65.540 7.984875
65.545 8.030464
65.550 7.911478
65.555 7.832123
65.560 7.672513
65.565 7.768488
65.570 7.946
65.575 7.955338
65.580 8.033717
65.585 7.771894
65.590 7.517331
65.595 7.830764
65.600 7.963419
65.605 7.810978
65.610 7.639265
65.615 7.900509
65.620 8.418248
65.625 9.237205
65.630 9.383678
65.635 9.112596
65.640 9.218818
65.645 8.789732
65.650 8.113394
65.655 7.940022
65.660 7.484093
65.665 7.481379
65.670 7.582115
65.675 7.936481
65.680 8.589141
65.685 9.107204
65.690 9.148169
65.695 9.055001
65.700 8.940695
65.705 8.884993
65.710 8.899325
65.715 8.707795
65.720 8.847427
65.725 8.950979
65.730 8.896832
65.735 9.029662
65.740 9.251608
65.745 9.428343
65.750 9.530402
65.755 9.372316
65.760 9.293462
65.765 9.691181
65.770 9.498128
65.775 8.814391
65.780 8.418631
65.785 8.193683
65.790 7.996912
65.795 8.037138
65.800 8.212078
65.805 8.261332
65.810 8.318835
65.815 8.234846
65.820 8.490539
65.825 8.956469
65.830 8.690639
65.835 8.469718
65.840 8.868382
65.845 9.399123
65.850 9.768696
65.855 9.819839
65.860 9.648032
65.865 9.872805
65.870 9.776486
65.875 9.585854
65.880 9.413328
65.885 9.147364
65.890 8.71019
65.895 8.685141
65.900 8.940324
65.905 9.136903
65.910 9.005778
65.915 8.514767
65.920 8.611841
65.925 8.736096
65.930 8.552784
65.935 8.223059
65.940 8.213129
65.945 8.310762
65.950 8.652223
65.955 8.503561
65.960 8.51911
65.965 8.859033
65.970 8.981155
65.975 8.732534
65.980 9.007371
65.985 8.962197
65.990 9.20603
65.995 9.280092
66.000 9.137544
66.005 9.166999
66.010 9.165768
66.015 8.989797
66.020 9.234261
66.025 8.917231
66.030 8.677803
66.035 8.456167
66.040 8.053731
66.045 7.858534
66.050 7.873261
66.055 7.687117
66.060 7.690441
66.065 7.330979
66.070 7.052021
66.075 7.462256
66.080 7.617806
66.085 7.760118
66.090 8.084953
66.095 8.56117
66.100 8.893731
66.105 9.230268
66.110 9.316604
66.115 9.389916
66.120 9.178342
66.125 8.997475
66.130 8.860474
66.135 8.933825
66.140 8.895944
66.145 8.667178
66.150 8.410872
66.155 8.51269
66.160 8.872508
66.165 8.965444
66.170 8.746055
66.175 8.68534
66.180 8.728764
66.185 8.777385
66.190 8.489536
66.195 8.106274
66.200 8.207755
66.205 8.543916
66.210 8.776525
66.215 8.50338
66.220 8.649571
66.225 8.550977
66.230 8.36638
66.235 8.288282
66.240 8.22403
66.245 7.91106
66.250 8.062588
66.255 8.156478
66.260 8.222444
66.265 8.642583
66.270 8.821025
66.275 8.581491
66.280 8.6917
66.285 8.776372
66.290 8.6982
66.295 8.924593
66.300 8.903181
66.305 8.052414
66.310 8.646127
66.315 8.962703
66.320 8.643938
66.325 8.67378
66.330 8.455296
66.335 8.250604
66.340 8.592773
66.345 8.082665
66.350 7.683956
66.355 8.095089
66.360 8.58417
66.365 8.66
66.370 8.509557
66.375 8.815075
66.380 9.138326
66.385 9.563033
66.390 9.64031
66.395 8.723885
66.400 8.47307
66.405 8.642798
66.410 8.830885
66.415 8.701519
66.420 8.316552
66.425 7.954821
66.430 8.514278
66.435 8.894745
66.440 8.620715
66.445 8.206955
66.450 8.257299
66.455 8.538838
66.460 8.573033
66.465 8.333754
66.470 8.189213
66.475 8.197854
66.480 8.091816
66.485 7.844512
66.490 7.321307
66.495 7.303664
66.500 7.501484
66.505 7.564803
66.510 7.653024
66.515 7.866894
66.520 8.03268
66.525 8.001594
66.530 7.836234
66.535 7.658129
66.540 7.664411
66.545 7.329125
66.550 6.99161
66.555 7.223396
66.560 7.425656
66.565 7.828247
66.570 8.488688
66.575 8.554371
66.580 9.327867
66.585 9.543305
66.590 9.356066
66.595 9.492705
66.600 9.235069
66.605 8.965192
66.610 8.946361
66.615 8.377054
66.620 8.168415
66.625 7.891763
66.630 7.529382
66.635 7.383489
66.640 7.204449
66.645 7.191993
66.650 7.509623
66.655 7.623089
66.660 7.712083
66.665 7.897022
66.670 7.670043
66.675 7.691045
66.680 7.47288
66.685 7.37009
66.690 7.53148
66.695 7.4921
66.700 7.50089
66.705 7.41849
66.710 7.373724
66.715 7.373897
66.720 6.883354
66.725 6.737926
66.730 7.195586
66.735 7.478559
66.740 7.876245
66.745 7.822159
66.750 7.700987
66.755 7.826481
66.760 8.084799
66.765 7.768213
66.770 7.658634
66.775 7.697008
66.780 7.776271
66.785 7.852324
66.790 8.274131
66.795 8.364792
66.800 8.491414
66.805 8.418168
66.810 8.217527
66.815 8.788918
66.820 8.882172
66.825 8.40956
66.830 8.596677
66.835 8.483932
66.840 8.364789
66.845 8.227448
66.850 7.469444
66.855 7.453685
66.860 7.36424
66.865 7.064412
66.870 6.8959
66.875 7.190081
66.880 7.485706
66.885 8.121232
66.890 8.096428
66.895 8.050447
66.900 8.091544
66.905 8.194984
66.910 8.246418
66.915 8.12428
66.920 8.020558
66.925 8.111858
66.930 8.544296
66.935 8.577296
66.940 8.617699
66.945 8.206865
66.950 7.527467
66.955 7.168296
66.960 7.250289
66.965 7.180963
66.970 7.228379
66.975 6.783926
66.980 7.052309
66.985 7.594435
66.990 7.666181
66.995 7.831414
67.000 7.750755
67.005 7.940886
67.010 8.386456
67.015 8.322712
67.020 8.527463
67.025 8.643906
67.030 8.57642
67.035 8.659925
67.040 8.403966
67.045 8.26207
67.050 8.498082
67.055 8.473534
67.060 8.554137
67.065 8.684918
67.070 8.718198
67.075 9.037871
67.080 9.143497
67.085 9.142378
67.090 9.151181
67.095 8.871058
67.100 8.806087
67.105 8.849529
67.110 8.418592
67.115 8.320061
67.120 8.506205
67.125 8.473683
67.130 8.763801
67.135 8.93002
67.140 8.705908
67.145 8.986476
67.150 8.795462
67.155 8.740072
67.160 8.654335
67.165 8.35739
67.170 7.960324
67.175 8.047076
67.180 7.949856
67.185 7.92201
67.190 7.585744
67.195 7.634366
67.200 7.638268
67.205 7.513945
67.210 7.050578
67.215 7.134873
67.220 7.112172
67.225 7.331058
67.230 7.243119
67.235 7.111039
67.240 7.491141
67.245 8.13798
67.250 8.39999
67.255 8.422376
67.260 8.32852
67.265 8.473375
67.270 9.024529
67.275 9.228094
67.280 9.150931
67.285 8.863158
67.290 8.735135
67.295 8.824338
67.300 8.72716
67.305 8.423427
67.310 8.284294
67.315 8.191964
67.320 8.516356
67.325 8.52172
67.330 8.68815
67.335 8.896782
67.340 9.020036
67.345 8.790627
67.350 8.720319
67.355 8.517324
67.360 8.519714
67.365 8.256906
67.370 8.026357
67.375 8.150443
67.380 8.661444
67.385 9.020579
67.390 9.26502
67.395 9.378151
67.400 9.731642
67.405 9.975599
67.410 9.59984
67.415 9.002687
67.420 8.579182
67.425 8.45353
67.430 8.805142
67.435 8.827715
67.440 8.943183
67.445 9.024873
67.450 9.373533
67.455 9.530287
67.460 9.289968
67.465 8.976551
67.470 8.914788
67.475 9.070038
67.480 9.302398
67.485 9.211572
67.490 9.290407
67.495 9.223484
67.500 9.114733
67.505 8.868649
67.510 8.503686
67.515 8.453534
67.520 7.941084
67.525 7.793325
67.530 7.975993
67.535 8.088634
67.540 7.961553
67.545 7.892863
67.550 7.811405
67.555 8.372778
67.560 8.68324
67.565 8.892779
67.570 8.891542
67.575 9.016558
67.580 9.092568
67.585 9.451457
67.590 9.099684
67.595 8.587755
67.600 8.442733
67.605 8.543031
67.610 8.439533
67.615 8.164775
67.620 7.561829
67.625 7.851163
67.630 8.133511
67.635 7.917025
67.640 7.576256
67.645 7.504643
67.650 7.440878
67.655 7.409599
67.660 7.547158
67.665 7.952085
67.670 8.215261
67.675 8.514555
67.680 8.626253
67.685 9.049371
67.690 9.465093
67.695 9.265794
67.700 8.867681
67.705 8.917337
67.710 8.853655
67.715 9.248981
67.720 9.198198
67.725 8.987237
67.730 9.024075
67.735 8.774365
67.740 8.474957
67.745 8.650487
67.750 8.316651
67.755 8.29843
67.760 8.368965
67.765 8.547403
67.770 8.629791
67.775 8.607019
67.780 8.680633
67.785 8.448718
67.790 8.502936
67.795 8.661642
67.800 9.008252
67.805 9.163852
67.810 9.306421
67.815 9.281162
67.820 9.555388
67.825 9.537702
67.830 9.135455
67.835 8.823092
67.840 8.916936
67.845 9.024574
67.850 8.686296
67.855 8.811548
67.860 8.742043
67.865 9.215558
67.870 9.488888
67.875 9.526482
67.880 9.503863
67.885 10.094447
67.890 10.06823
67.895 10.230751
67.900 10.099008
67.905 9.795631
67.910 9.850986
67.915 9.341013
67.920 8.759661
67.925 8.942697
67.930 8.491143
67.935 8.404081
67.940 8.557174
67.945 8.717509
67.950 9.069841
67.955 9.201404
67.960 9.04089
67.965 9.339859
67.970 9.444902
67.975 9.602993
67.980 9.531833
67.985 9.633999
67.990 9.963543
67.995 9.789744
68.000 9.65962
68.005 9.569882
68.010 9.823335
68.015 10.060597
68.020 9.815954
68.025 9.875664
68.030 10.308009
68.035 10.649413
68.040 10.502891
68.045 10.120897
68.050 9.845262
68.055 10.099483
68.060 10.125169
68.065 9.830351
68.070 9.478462
68.075 8.811392
68.080 8.726731
68.085 8.768471
68.090 8.618691
68.095 8.393726
68.100 8.521044
68.105 8.528589
68.110 8.695774
68.115 8.83679
68.120 8.560087
68.125 8.634294
68.130 9.038221
68.135 8.692486
68.140 8.787583
68.145 9.087473
68.150 9.426385
68.155 9.592059
68.160 9.185658
68.165 8.821662
68.170 8.67837
68.175 8.690181
68.180 8.171541
68.185 7.602159
68.190 7.221246
68.195 7.105243
68.200 7.117497
68.205 7.166014
68.210 7.393889
68.215 8.110609
68.220 8.354076
68.225 8.647487
68.230 8.431998
68.235 8.297945
68.240 8.40356
68.245 7.955111
68.250 7.508043
68.255 7.655297
68.260 7.693392
68.265 8.114487
68.270 8.045183
68.275 7.95444
68.280 7.830765
68.285 7.669973
68.290 7.213484
68.295 6.632518
68.300 6.378193
68.305 6.665608
68.310 6.907032
68.315 6.971899
68.320 7.10921
68.325 7.256116
68.330 7.543792
68.335 7.647726
68.340 7.698222
68.345 7.66496
68.350 7.39786
68.355 7.842975
68.360 8.21316
68.365 8.073856
68.370 8.299716
68.375 8.03377
68.380 8.217546
68.385 8.496961
68.390 8.018586
68.395 7.535614
68.400 7.440181
68.405 6.978754
68.410 6.765728
68.415 6.900203
68.420 7.290373
68.425 7.664729
68.430 7.979687
68.435 8.705312
68.440 8.96202
68.445 9.119637
68.450 8.875298
68.455 8.642208
68.460 8.807644
68.465 8.760758
68.470 8.052216
68.475 7.914604
68.480 8.142265
68.485 8.245712
68.490 8.188522
68.495 8.143049
68.500 8.203761
68.505 8.805755
68.510 9.014711
68.515 9.000443
68.520 9.101109
68.525 8.937087
68.530 8.744166
68.535 8.517694
68.540 8.249861
68.545 8.504097
68.550 8.812384
68.555 8.708553
68.560 9.155629
68.565 9.412781
68.570 9.7193
68.575 9.614406
68.580 9.053136
68.585 8.946172
68.590 9.182044
68.595 8.589289
68.600 8.798229
68.605 8.990065
68.610 9.098725
68.615 9.260322
68.620 8.846801
68.625 8.568099
68.630 8.630703
68.635 8.474827
68.640 8.520109
68.645 8.377605
68.650 8.819309
68.655 8.865516
68.660 8.66958
68.665 8.64463
68.670 8.593246
68.675 8.48437
68.680 8.913631
68.685 8.471714
68.690 8.754914
68.695 9.101526
68.700 8.968356
68.705 8.733566
68.710 8.468905
68.715 8.318618
68.720 8.322315
68.725 7.938121
68.730 7.865284
68.735 8.26228
68.740 8.356191
68.745 8.28834
68.750 8.3993
68.755 8.709008
68.760 8.786977
68.765 9.018743
68.770 8.945518
68.775 9.11996
68.780 9.214056
68.785 9.375498
68.790 9.282233
68.795 9.604986
68.800 9.242086
68.805 9.06498
68.810 8.791227
68.815 8.628425
68.820 8.146505
68.825 7.664772
68.830 7.705407
68.835 8.086706
68.840 7.892531
68.845 8.14226
68.850 8.128208
68.855 8.157782
68.860 8.481668
68.865 8.405951
68.870 8.28957
68.875 8.541361
68.880 8.357773
68.885 8.406886
68.890 8.443652
68.895 8.189064
68.900 8.087786
68.905 8.078934
68.910 7.891579
68.915 7.785578
68.920 8.01777
68.925 8.340097
68.930 8.589353
68.935 8.647454
68.940 8.94384
68.945 9.282454
68.950 9.878475
68.955 9.656745
68.960 9.590055
68.965 9.913813
68.970 10.274932
68.975 9.611536
68.980 9.541267
68.985 9.247225
68.990 8.892689
68.995 8.71922
69.000 8.365273
69.005 8.271814
69.010 8.906323
69.015 8.922374
69.020 9.150846
69.025 9.510242
69.030 9.385725
69.035 9.274623
69.040 9.413373
69.045 9.319964
69.050 9.395373
69.055 9.536522
69.060 9.480083
69.065 9.529032
69.070 9.355587
69.075 8.710903
69.080 8.279881
69.085 8.070253
69.090 7.74153
69.095 7.353557
69.100 7.546583
69.105 7.697362
69.110 7.70186
69.115 8.110559
69.120 8.089094
69.125 8.22553
69.130 8.616086
69.135 8.763247
69.140 8.950641
69.145 9.130582
69.150 9.120918
69.155 9.215567
69.160 9.491462
69.165 9.524572
69.170 9.869364
69.175 10.198008
69.180 10.020063
69.185 9.936204
69.190 9.856997
69.195 9.62532
69.200 9.524178
69.205 9.090076
69.210 8.767686
69.215 8.61003
69.220 8.177465
69.225 8.309823
69.230 8.361864
69.235 8.274544
69.240 8.199399
69.245 8.491624
69.250 8.895189
69.255 9.241605
69.260 9.196301
69.265 9.374903
69.270 9.409596
69.275 9.112314
69.280 8.664155
69.285 8.466511
69.290 8.408236
69.295 7.961367
69.300 7.535583
69.305 7.350279
69.310 7.297274
69.315 7.2529
69.320 7.289351
69.325 7.443659
69.330 7.900376
69.335 8.396805
69.340 8.733756
69.345 9.015183
69.350 9.661009
69.355 9.57573
69.360 9.290616
69.365 9.214621
69.370 8.768526
69.375 8.734888
69.380 8.405958
69.385 7.6359
69.390 7.370953
69.395 7.521879
69.400 7.388564
69.405 7.294024
69.410 7.014568
69.415 7.158995
69.420 7.82873
69.425 8.5683
69.430 8.76457
69.435 8.853441
69.440 9.082813
69.445 9.226125
69.450 9.004967
69.455 8.714481
69.460 8.144074
69.465 8.01874
69.470 7.60489
69.475 7.255008
69.480 7.382455
69.485 7.544799
69.490 7.538475
69.495 7.553901
69.500 7.68469
69.505 7.758075
69.510 7.955606
69.515 7.916352
69.520 8.073823
69.525 8.005814
69.530 8.237531
69.535 8.482224
69.540 8.601786
69.545 8.937762
69.550 9.634871
69.555 9.377735
69.560 9.55887
69.565 9.45437
69.570 9.522898
69.575 10.48794
69.580 9.814311
69.585 9.54423
69.590 10.130244
69.595 9.725425
69.600 9.4313
69.605 9.263487
69.610 9.025661
69.615 9.26801
69.620 8.672
69.625 8.501325
69.630 8.635128
69.635 8.855193
69.640 8.559887
69.645 8.273152
69.650 8.340342
69.655 8.408827
69.660 8.162337
69.665 7.990724
69.670 7.94046
69.675 8.413356
69.680 8.392095
69.685 8.281919
69.690 8.291304
69.695 8.473522
69.700 8.728142
69.705 9.005955
69.710 8.563078
69.715 8.466613
69.720 8.628457
69.725 8.671906
69.730 8.816292
69.735 8.675285
69.740 8.319971
69.745 8.549993
69.750 8.87429
69.755 8.818578
69.760 8.57814
69.765 8.080325
69.770 7.967531
69.775 7.615449
69.780 7.303698
69.785 6.863708
69.790 6.81113
69.795 6.970459
69.800 7.29648
69.805 7.782494
69.810 8.342184
69.815 8.789733
69.820 8.695319
69.825 8.57633
69.830 8.65715
69.835 8.587353
69.840 8.161551
69.845 7.793105
69.850 7.844722
69.855 8.179312
69.860 8.803664
69.865 9.154668
69.870 9.506289
69.875 9.442561
69.880 9.681389
69.885 9.653799
69.890 9.932265
69.895 9.92393
69.900 9.644457
69.905 9.529811
69.910 9.364008
69.915 8.875236
69.920 8.991076
69.925 8.807791
69.930 8.684288
69.935 8.768017
69.940 8.504245
69.945 8.593076
69.950 8.573763
69.955 8.589829
69.960 8.531986
69.965 7.671673
69.970 7.786667
69.975 7.901398
69.980 7.998577
69.985 8.069085
69.990 7.831951
69.995 7.935503
70.000 8.275808
70.005 7.973643
70.010 7.725224
70.015 7.580284
70.020 7.747882
70.025 7.635935
70.030 7.914948
70.035 7.855043
70.040 7.968935
70.045 8.318972
70.050 8.457329
70.055 8.577386
70.060 8.61793
70.065 8.522076
70.070 8.801412
70.075 8.800198
70.080 9.023267
70.085 8.773705
70.090 8.864162
70.095 8.85663
70.100 8.664984
70.105 8.417152
70.110 8.664341
70.115 8.287644
70.120 8.621868
70.125 8.422794
70.130 8.412217
70.135 8.802416
70.140 8.888985
70.145 8.513267
70.150 8.448957
70.155 8.171916
70.160 8.06452
70.165 7.952481
70.170 7.647767
70.175 7.816837
70.180 8.010547
70.185 8.200785
70.190 8.332899
70.195 8.371419
70.200 8.193326
70.205 8.011888
70.210 7.609634
70.215 7.879474
70.220 8.023273
70.225 8.010152
70.230 7.93651
70.235 8.04147
70.240 8.52114
70.245 8.752124
70.250 9.226876
70.255 9.108614
70.260 8.987768
70.265 9.466387
70.270 9.450224
70.275 9.151713
70.280 8.823986
70.285 8.586679
70.290 8.573919
70.295 8.64334
70.300 8.350616
70.305 9.024443
70.310 9.596251
70.315 9.660599
70.320 9.507077
70.325 9.567704
70.330 9.473752
70.335 9.314587
70.340 8.80521
70.345 8.36019
70.350 8.182995
70.355 8.487792
70.360 8.493641
70.365 9.044356
70.370 9.312747
70.375 9.448154
70.380 9.456727
70.385 9.525258
70.390 9.426432
70.395 9.686053
70.400 9.608412
70.405 9.460705
70.410 9.67307
70.415 10.040075
70.420 9.886731
70.425 9.54494
70.430 9.306193
70.435 9.270477
70.440 9.298076
70.445 9.027664
70.450 8.734463
70.455 8.960185
70.460 9.015169
70.465 8.758218
70.470 8.458382
70.475 8.637078
70.480 8.410102
70.485 8.59822
70.490 8.883401
70.495 8.977027
70.500 9.344792
70.505 9.28714
70.510 9.297815
70.515 9.510091
70.520 9.662373
70.525 9.470324
70.530 9.529875
70.535 9.539298
70.540 9.75107
70.545 9.654408
70.550 9.386136
70.555 9.044669
70.560 8.793201
70.565 8.393315
70.570 7.971916
70.575 7.313032
70.580 7.234928
70.585 7.502851
70.590 7.6071
70.595 7.199479
70.600 7.400221
70.605 7.714822
70.610 8.706087
70.615 8.858411
70.620 8.599226
70.625 8.844762
70.630 9.483502
70.635 9.448926
70.640 9.075316
70.645 8.880903
70.650 8.93313
70.655 8.775538
70.660 8.687546
70.665 8.525661
70.670 9.000688
70.675 9.102975
70.680 8.603548
70.685 8.442839
70.690 9.068321
70.695 8.973412
70.700 8.974017
70.705 8.756166
70.710 8.772073
70.715 9.208425
70.720 9.041217
70.725 8.371004
70.730 8.315327
70.735 8.140594
70.740 8.164518
70.745 8.135488
70.750 8.218989
70.755 8.979159
70.760 9.276421
70.765 9.211183
70.770 8.972733
70.775 8.848804
70.780 8.866865
70.785 8.58869
70.790 7.847266
70.795 7.893077
70.800 8.130616
70.805 8.293059
70.810 8.488162
70.815 8.118901
70.820 8.532366
70.825 8.629358
70.830 8.607149
70.835 8.459221
70.840 8.415618
70.845 8.134292
70.850 8.120432
70.855 7.690294
70.860 7.59615
70.865 7.399569
70.870 7.314593
70.875 7.341624
70.880 7.289123
70.885 7.090893
70.890 6.886921
70.895 7.030925
70.900 7.42551
70.905 7.3258
70.910 7.739581
70.915 7.777311
70.920 7.900789
70.925 8.225326
70.930 8.439683
70.935 8.449526
70.940 8.431087
70.945 8.225627
70.950 8.153061
70.955 7.961373
70.960 7.451291
70.965 7.198206
70.970 7.194381
70.975 7.143463
70.980 7.471345
70.985 7.677189
70.990 7.706822
70.995 7.751814
71.000 7.810772
71.005 7.564419
71.010 7.896081
71.015 8.119133
71.020 8.374188
71.025 8.355062
71.030 8.211796
71.035 8.250265
71.040 8.377338
71.045 8.392409
71.050 8.229662
71.055 8.600142
71.060 8.738647
71.065 9.059288
71.070 9.300919
71.075 8.735562
71.080 8.308628
71.085 8.206234
71.090 8.105557
71.095 8.124217
71.100 7.481797
71.105 7.509405
71.110 7.902508
71.115 7.892733
71.120 7.583792
71.125 7.454818
71.130 7.583572
71.135 7.836851
71.140 7.720075
71.145 7.76557
71.150 7.923329
71.155 7.980752
71.160 8.062142
71.165 7.961638
71.170 7.797731
71.175 7.701149
71.180 7.703388
71.185 7.641209
71.190 7.52879
71.195 7.456833
71.200 7.746047
71.205 8.063107
71.210 8.295326
71.215 8.47582
71.220 8.60708
71.225 8.803367
71.230 8.93191
71.235 8.610729
71.240 8.568267
71.245 8.546927
71.250 8.501993
71.255 8.959146
71.260 8.669892
71.265 8.818225
71.270 8.656151
71.275 8.517694
71.280 8.531188
71.285 7.743459
71.290 7.303463
71.295 7.379423
71.300 7.301047
71.305 7.444277
71.310 7.417265
71.315 7.265931
71.320 7.651064
71.325 7.900389
71.330 7.728889
71.335 8.211127
71.340 8.611449
71.345 8.858667
71.350 9.301044
71.355 9.661365
71.360 9.539019
71.365 9.207856
71.370 8.485188
71.375 8.506082
71.380 8.30991
71.385 7.891966
71.390 7.581214
71.395 7.916904
71.400 8.496783
71.405 8.557615
71.410 8.371964
71.415 8.069487
71.420 8.020312
71.425 7.84939
71.430 7.470232
71.435 7.503453
71.440 7.543096
71.445 7.383875
71.450 7.735345
71.455 8.056846
71.460 8.209721
71.465 8.380898
71.470 8.091434
71.475 7.963974
71.480 8.467976
71.485 8.572392
71.490 8.559896
71.495 8.437996
71.500 8.651803
71.505 8.951397
71.510 9.074972
71.515 8.932424
71.520 8.69113
71.525 8.671761
71.530 8.603728
71.535 8.639794
71.540 8.762212
71.545 8.530285
71.550 8.659408
71.555 8.756392
71.560 8.930842
71.565 8.880497
71.570 8.616384
71.575 8.449031
71.580 8.436167
71.585 7.955346
71.590 7.967763
71.595 8.119162
71.600 8.079202
71.605 8.267509
71.610 8.272976
71.615 8.439803
71.620 8.668305
71.625 8.4167
71.630 8.325336
71.635 8.533745
71.640 8.282184
71.645 8.418991
71.650 8.10013
71.655 7.974666
71.660 7.821577
71.665 7.663422
71.670 7.437576
71.675 7.262091
71.680 7.288383
71.685 7.477976
71.690 7.7281
71.695 8.310715
71.700 8.792912
71.705 9.576138
71.710 9.247142
71.715 9.093961
71.720 8.988765
71.725 8.664339
71.730 8.17508
71.735 7.855891
71.740 7.490322
71.745 7.860343
71.750 8.304985
71.755 8.228078
71.760 8.659528
71.765 8.709431
71.770 8.478281
71.775 8.300626
71.780 8.049499
71.785 7.654418
71.790 7.7856
71.795 7.416797
71.800 7.38746
71.805 7.5082
71.810 7.968491
71.815 8.03766
71.820 8.208029
71.825 8.344477
71.830 8.109257
71.835 8.080256
71.840 8.387002
71.845 8.513912
71.850 8.704664
71.855 8.787477
71.860 8.779846
71.865 9.092512
71.870 9.034901
71.875 8.517312
71.880 8.061854
71.885 7.725826
71.890 7.274055
71.895 7.169581
71.900 7.254923
71.905 7.340075
71.910 7.267759
71.915 7.187786
71.920 7.129366
71.925 7.385633
71.930 7.47396
71.935 6.989516
71.940 6.840582
71.945 7.036927
71.950 7.148889
71.955 7.251282
71.960 7.575226
71.965 8.021106
71.970 8.570596
71.975 8.484372
71.980 8.587209
71.985 8.944199
71.990 8.863309
71.995 8.580116
72.000 8.352298
72.005 8.218468
72.010 8.677688
72.015 8.48201
72.020 8.398412
72.025 8.522389
72.030 8.721725
72.035 8.537867
72.040 8.54225
72.045 8.690253
72.050 9.00232
72.055 8.852428
72.060 8.465163
72.065 8.056315
72.070 8.191354
72.075 7.836087
72.080 6.997632
72.085 6.844142
72.090 7.099305
72.095 7.050443
72.100 7.247853
72.105 7.175437
72.110 7.026787
72.115 7.338942
72.120 7.30802
72.125 7.537204
72.130 7.503413
72.135 7.496458
72.140 7.258718
72.145 7.923391
72.150 7.947039
72.155 8.339415
72.160 7.985292
72.165 7.872412
72.170 8.13575
72.175 8.612425
72.180 8.515121
72.185 8.079485
72.190 7.657022
72.195 7.605423
72.200 7.520002
72.205 7.434847
72.210 7.230196
72.215 7.386275
72.220 8.003935
72.225 8.589166
72.230 8.631169
72.235 8.559102
72.240 8.23959
72.245 8.191536
72.250 7.599846
72.255 7.008456
72.260 6.668109
72.265 7.112483
72.270 7.529811
72.275 7.629253
72.280 7.717291
72.285 7.699328
72.290 7.522101
72.295 7.204247
72.300 6.909447
72.305 6.791606
72.310 6.778535
72.315 6.93391
72.320 7.693547
72.325 8.099599
72.330 8.358511
72.335 8.882565
72.340 9.285143
72.345 9.266582
72.350 8.902442
72.355 8.556485
72.360 8.724086
72.365 8.629719
72.370 8.106321
72.375 7.917908
72.380 8.185736
72.385 8.778052
72.390 8.634732
72.395 8.990193
72.400 8.861168
72.405 8.878245
72.410 8.787492
72.415 9.016408
72.420 9.12568
72.425 8.875062
72.430 8.381557
72.435 8.256342
72.440 7.833113
72.445 7.827136
72.450 7.284924
72.455 6.826679
72.460 7.218233
72.465 7.489018
72.470 7.706093
72.475 8.074989
72.480 7.873462
72.485 7.887875
72.490 7.956325
72.495 7.692296
72.500 7.476395
72.505 7.695899
72.510 8.131759
72.515 8.152482
72.520 8.419616
72.525 8.260946
72.530 8.227991
72.535 8.128633
72.540 7.906083
72.545 7.460638
72.550 7.517385
72.555 7.400526
72.560 7.977507
72.565 8.231735
72.570 8.406117
72.575 8.435289
72.580 8.277656
72.585 8.452388
72.590 8.596858
72.595 8.377143
72.600 8.50877
72.605 8.662309
72.610 8.464062
72.615 8.424836
72.620 8.069085
72.625 7.965673
72.630 8.096811
72.635 7.652229
72.640 7.365252
72.645 7.410684
72.650 7.326119
72.655 7.336005
72.660 7.328506
72.665 7.702218
72.670 7.92867
72.675 8.641364
72.680 8.706857
72.685 8.576474
72.690 8.691784
72.695 8.538328
72.700 8.086933
72.705 7.510586
72.710 7.223935
72.715 7.612639
72.720 7.738949
72.725 7.664176
72.730 8.006061
72.735 8.361308
72.740 8.500505
72.745 8.50763
72.750 8.371584
72.755 8.581411
72.760 8.346132
72.765 7.96243
72.770 8.120105
72.775 8.323112
72.780 8.078155
72.785 7.84428
72.790 8.153904
72.795 8.220311
72.800 8.470503
72.805 8.213386
72.810 7.814322
72.815 7.787095
72.820 7.890651
72.825 7.228673
72.830 7.245194
72.835 7.263563
72.840 7.370922
72.845 7.894288
72.850 8.249827
72.855 8.203485
72.860 8.531137
72.865 8.335351
72.870 8.655089
72.875 8.397165
72.880 7.762481
72.885 7.70193
72.890 7.655525
72.895 7.689155
72.900 7.788273
72.905 7.338965
72.910 7.868366
72.915 8.064395
72.920 8.125681
72.925 7.871907
72.930 7.521933
72.935 7.372855
72.940 7.3165
72.945 6.899118
72.950 7.104432
72.955 7.089276
72.960 7.686131
72.965 7.827583
72.970 7.507537
72.975 7.461417
72.980 7.212246
72.985 6.940604
72.990 6.885289
72.995 6.613603
73.000 6.591661
