!@!!GADDS PLOTSO FILE: Chi integration type
!@!!Title/SampleName: map-121
!@!!Comment: ?
!@!!User: Bruker Instrument Administrator
!@!!Site: University of Illinois Chicago
!@!!Frame: map-121_01_000.gfrm
!@!!Wavelengths    1.54184   1.54056   1.54439
!@!!Frame angles: 2Theta: 63.000 Omega: 50.000 Phi: 0.000 Chi: 90.000
!@!!Integration range: 2Theta: 53.000 to 73.000  Gamma: -105.000 to -75.000
!@!!Integration method: bin normalized
!@!N
!@!SS
!@!M
!@!L 0.0 0.0 0.0 0.0
!@!XDegrees
!@!YCounts
53.000 5.316144
53.005 5.423847
53.010 5.34459
53.015 5.265365
53.020 5.052753
53.025 5.108515
53.030 5.257234
53.035 5.051906
53.040 5.064746
53.045 4.876812
53.050 4.987479
53.055 5.179057
53.060 5.213512
53.065 5.224659
53.070 5.23078
53.075 5.271843
53.080 5.179413
53.085 5.008003
53.090 4.953055
53.095 4.777652
53.100 4.660728
53.105 4.628569
53.110 4.836341
53.115 5.081196
53.120 4.918122
53.125 4.763476
53.130 4.980641
53.135 4.85786
53.140 4.578897
53.145 4.35246
53.150 4.137337
53.155 4.194155
53.160 4.22165
53.165 4.285686
53.170 4.491437
53.175 4.707323
53.180 4.921557
53.185 5.604963
53.190 5.738717
53.195 5.541908
53.200 5.131128
53.205 4.920394
53.210 4.974912
53.215 4.738058
53.220 4.295806
53.225 4.475338
53.230 4.74765
53.235 4.969395
53.240 5.253295
53.245 5.327988
53.250 5.446794
53.255 5.40293
53.260 5.153306
53.265 5.289339
53.270 5.362525
53.275 5.350821
53.280 5.204211
53.285 5.38796
53.290 5.475395
53.295 5.337798
53.300 5.18512
53.305 5.021528
53.310 5.24038
53.315 5.363784
53.320 5.277199
53.325 5.676621
53.330 5.776771
53.335 5.876476
53.340 5.903304
53.345 5.500855
53.350 5.579841
53.355 5.703143
53.360 5.525343
53.365 5.361086
53.370 5.354292
53.375 5.727847
53.380 5.770717
53.385 5.562132
53.390 4.93238
53.395 4.941276
53.400 5.235866
53.405 5.199378
53.410 4.914624
53.415 5.134587
53.420 5.416434
53.425 5.908865
53.430 5.610332
53.435 5.650709
53.440 5.635149
53.445 5.641779
53.450 5.599034
53.455 5.563221
53.460 5.731626
53.465 6.061041
53.470 6.089682
53.475 6.051255
53.480 5.863971
53.485 5.764778
53.490 5.377237
53.495 5.216335
53.500 5.245695
53.505 5.202719
53.510 5.532326
53.515 5.868621
53.520 5.812315
53.525 5.986367
53.530 5.904963
53.535 5.787185
53.540 5.790391
53.545 5.458431
53.550 5.14727
53.555 5.080901
53.560 5.161755
53.565 5.202537
53.570 4.86129
53.575 4.783647
53.580 4.80978
53.585 4.981078
53.590 5.311715
53.595 5.502802
53.600 5.449889
53.605 5.541744
53.610 5.60426
53.615 5.753272
53.620 5.87835
53.625 5.714925
53.630 5.614272
53.635 5.702407
53.640 5.73074
53.645 5.709145
53.650 5.581113
53.655 5.47014
53.660 5.255077
53.665 5.162283
53.670 5.205499
53.675 5.12028
53.680 5.078904
53.685 5.109224
53.690 4.897284
53.695 5.136213
53.700 4.907707
53.705 4.803558
53.710 4.890066
53.715 4.780952
53.720 4.846849
53.725 4.870376
53.730 4.807894
53.735 4.795987
53.740 5.072982
53.745 4.826759
53.750 4.753241
53.755 4.790041
53.760 5.090318
53.765 4.999353
53.770 5.144195
53.775 4.956462
53.780 5.059194
53.785 4.853245
53.790 4.565153
53.795 4.225121
53.800 4.433476
53.805 4.358865
53.810 4.958176
53.815 5.242214
53.820 5.457952
53.825 5.73325
53.830 5.610267
53.835 5.365869
53.840 5.079828
53.845 4.947869
53.850 4.808957
53.855 4.736391
53.860 4.690366
53.865 5.020815
53.870 5.29739
53.875 5.434658
53.880 5.291948
53.885 5.749527
53.890 6.29313
53.895 6.548744
53.900 6.657365
53.905 6.448573
53.910 6.510514
53.915 6.429823
53.920 5.86323
53.925 5.358559
53.930 5.114676
53.935 5.14102
53.940 5.109076
53.945 5.092569
53.950 5.131591
53.955 5.083168
53.960 5.131507
53.965 5.044822
53.970 4.980693
53.975 4.763605
53.980 4.651491
53.985 4.800493
53.990 4.769416
53.995 4.582025
54.000 4.467032
54.005 4.224046
54.010 4.362757
54.015 4.450222
54.020 4.73483
54.025 5.294379
54.030 5.261675
54.035 5.287159
54.040 5.174258
54.045 4.762728
54.050 4.793857
54.055 4.798645
54.060 4.532758
54.065 4.478098
54.070 4.613505
54.075 4.802445
54.080 5.275228
54.085 4.877495
54.090 4.486628
54.095 4.667334
54.100 4.71768
54.105 4.944296
54.110 5.121611
54.115 4.81079
54.120 4.725439
54.125 4.719957
54.130 4.754099
54.135 4.454997
54.140 4.359845
54.145 4.360922
54.150 4.738888
54.155 4.83111
54.160 5.09889
54.165 5.41156
54.170 5.821218
54.175 5.845582
54.180 5.868768
54.185 5.829321
54.190 6.158057
54.195 6.001015
54.200 6.094951
54.205 6.035425
54.210 6.202003
54.215 6.136712
54.220 5.964475
54.225 5.461101
54.230 5.644993
54.235 5.714128
54.240 5.83361
54.245 5.829631
54.250 5.893371
54.255 5.952011
54.260 6.125554
54.265 5.717957
54.270 5.561306
54.275 5.574002
54.280 5.284738
54.285 5.136897
54.290 5.411839
54.295 5.294283
54.300 5.206131
54.305 5.238523
54.310 5.043087
54.315 5.140351
54.320 5.106318
54.325 4.952331
54.330 4.99111
54.335 5.083632
54.340 4.934497
54.345 5.069111
54.350 5.081883
54.355 5.408462
54.360 5.444355
54.365 5.661279
54.370 5.426111
54.375 5.411016
54.380 5.378991
54.385 5.005101
54.390 4.795305
54.395 4.822527
54.400 4.807726
54.405 5.18133
54.410 5.114748
54.415 5.32413
54.420 5.51261
54.425 5.623873
54.430 5.893271
54.435 5.747939
54.440 5.80281
54.445 6.085226
54.450 5.915816
54.455 6.134731
54.460 6.070656
54.465 6.128653
54.470 6.006142
54.475 5.987172
54.480 6.262301
54.485 6.589882
54.490 6.339903
54.495 5.821751
54.500 5.636118
54.505 6.012584
54.510 5.553914
54.515 5.495365
54.520 5.350397
54.525 5.52574
54.530 5.721264
54.535 5.53348
54.540 5.553067
54.545 5.523376
54.550 5.242948
54.555 4.987753
54.560 5.274413
54.565 5.737941
54.570 5.747924
54.575 5.466682
54.580 5.246164
54.585 5.700478
54.590 6.080722
54.595 5.475736
54.600 5.253562
54.605 5.114501
54.610 5.300993
54.615 5.64134
54.620 5.595142
54.625 5.594834
54.630 6.000091
54.635 5.854999
54.640 6.239445
54.645 6.286284
54.650 6.165966
54.655 5.50006
54.660 5.235016
54.665 5.107023
54.670 5.161697
54.675 4.998404
54.680 4.58083
54.685 4.418937
54.690 4.85485
54.695 4.948409
54.700 5.25262
54.705 5.16894
54.710 4.926986
54.715 5.241429
54.720 5.122029
54.725 4.960323
54.730 4.848296
54.735 4.478731
54.740 4.500666
54.745 4.802101
54.750 5.062232
54.755 5.137681
54.760 5.117119
54.765 5.204837
54.770 5.284351
54.775 5.61343
54.780 5.685352
54.785 5.444712
54.790 5.664596
54.795 5.821542
54.800 6.053437
54.805 6.254285
54.810 6.127857
54.815 6.033707
54.820 6.046958
54.825 5.77057
54.830 5.50392
54.835 5.186517
54.840 5.221658
54.845 5.045797
54.850 5.138181
54.855 5.214002
54.860 5.40373
54.865 5.184247
54.870 5.021497
54.875 5.071755
54.880 5.200739
54.885 5.245723
54.890 5.698126
54.895 6.018098
54.900 6.294826
54.905 6.280848
54.910 5.864366
54.915 6.169751
54.920 6.355617
54.925 6.005549
54.930 5.990662
54.935 6.093805
54.940 6.285168
54.945 6.21056
54.950 5.954694
54.955 5.842802
54.960 5.604165
54.965 5.803545
54.970 5.797292
54.975 6.289457
54.980 6.810139
54.985 6.850272
54.990 6.861368
54.995 7.065129
55.000 6.659823
55.005 6.346213
55.010 5.919909
55.015 5.840862
55.020 5.689407
55.025 5.482899
55.030 5.058804
55.035 5.371478
55.040 5.760499
55.045 6.107574
55.050 5.897631
55.055 6.213274
55.060 6.515542
55.065 7.163663
55.070 7.479843
55.075 7.235468
55.080 6.842456
55.085 6.873645
55.090 6.942815
55.095 7.221452
55.100 6.585925
55.105 6.21552
55.110 6.26546
55.115 6.704154
55.120 6.33592
55.125 5.72532
55.130 5.683299
55.135 5.847156
55.140 6.082544
55.145 6.114295
55.150 5.850294
55.155 6.06744
55.160 6.148291
55.165 6.060336
55.170 6.428771
55.175 6.394276
55.180 6.204836
55.185 6.304121
55.190 6.018285
55.195 5.849876
55.200 5.56913
55.205 5.311184
55.210 5.120409
55.215 4.786437
55.220 5.106916
55.225 6.15517
55.230 6.696076
55.235 6.878523
55.240 6.669576
55.245 6.927312
55.250 7.251064
55.255 6.657722
55.260 6.0176
55.265 6.18947
55.270 6.515182
55.275 6.518792
55.280 6.733933
55.285 6.770994
55.290 6.629482
55.295 6.467334
55.300 5.659328
55.305 5.486026
55.310 5.571007
55.315 5.209203
55.320 5.345089
55.325 5.464054
55.330 6.056918
55.335 6.208173
55.340 6.025462
55.345 6.128818
55.350 6.201662
55.355 6.5363
55.360 6.481067
55.365 6.410968
55.370 6.718191
55.375 6.787475
55.380 6.656262
55.385 6.383051
55.390 6.314016
55.395 6.647895
55.400 6.709457
55.405 6.731544
55.410 6.805821
55.415 6.74853
55.420 7.20788
55.425 7.235631
55.430 7.10817
55.435 6.636833
55.440 6.737971
55.445 6.744107
55.450 6.657548
55.455 6.185964
55.460 6.224738
55.465 6.589296
55.470 6.821379
55.475 6.743219
55.480 6.732094
55.485 6.744743
55.490 6.717745
55.495 5.982509
55.500 5.3355
55.505 5.11389
55.510 5.200181
55.515 5.404055
55.520 5.52811
55.525 5.723992
55.530 5.936172
55.535 6.410248
55.540 6.492677
55.545 6.196401
55.550 6.265083
55.555 6.33712
55.560 6.53881
55.565 6.567055
55.570 6.112447
55.575 6.155448
55.580 6.323652
55.585 6.445285
55.590 6.423254
55.595 6.062003
55.600 6.033884
55.605 5.866584
55.610 6.020743
55.615 5.875566
55.620 5.698274
55.625 5.645066
55.630 5.520365
55.635 5.944137
55.640 6.20534
55.645 5.982082
55.650 5.842002
55.655 5.920412
55.660 6.133298
55.665 6.118554
55.670 5.807276
55.675 5.849179
55.680 5.883749
55.685 5.603481
55.690 5.347287
55.695 5.019044
55.700 4.993361
55.705 4.948741
55.710 5.162001
55.715 5.445688
55.720 5.305698
55.725 5.31656
55.730 5.708575
55.735 6.101375
55.740 6.036228
55.745 5.814139
55.750 5.864443
55.755 5.910044
55.760 6.170147
55.765 6.134542
55.770 6.03119
55.775 6.209196
55.780 6.421935
55.785 6.647905
55.790 6.746778
55.795 6.759182
55.800 6.971966
55.805 6.77352
55.810 6.074012
55.815 5.903886
55.820 5.906318
55.825 5.901561
55.830 5.695214
55.835 5.534941
55.840 6.07195
55.845 6.51579
55.850 6.740083
55.855 7.005898
55.860 7.322505
55.865 7.136276
55.870 7.064994
55.875 7.262825
55.880 7.236444
55.885 6.966866
55.890 6.332243
55.895 6.183083
55.900 6.248508
55.905 5.696236
55.910 5.505641
55.915 5.67585
55.920 5.812294
55.925 6.213689
55.930 6.079671
55.935 6.191661
55.940 6.41395
55.945 6.134732
55.950 5.863395
55.955 6.000303
55.960 5.735721
55.965 5.794376
55.970 6.235841
55.975 6.51461
55.980 6.601703
55.985 6.645106
55.990 6.488276
55.995 6.766041
56.000 6.873066
56.005 6.39797
56.010 6.13815
56.015 6.019804
56.020 5.908808
56.025 5.497791
56.030 5.298638
56.035 5.25128
56.040 5.01844
56.045 5.154642
56.050 5.297761
56.055 5.800233
56.060 6.109968
56.065 6.206209
56.070 6.120112
56.075 6.600084
56.080 6.797037
56.085 6.287351
56.090 6.101428
56.095 6.171846
56.100 6.531093
56.105 6.712052
56.110 6.509311
56.115 6.316438
56.120 6.427347
56.125 6.509645
56.130 6.323174
56.135 5.999482
56.140 5.980929
56.145 5.580965
56.150 5.635118
56.155 5.977432
56.160 6.19531
56.165 5.948435
56.170 5.64911
56.175 5.646568
56.180 5.977812
56.185 6.302127
56.190 6.000869
56.195 5.920058
56.200 6.470442
56.205 6.518209
56.210 6.55451
56.215 6.495961
56.220 6.719189
56.225 7.025911
56.230 7.279388
56.235 7.517836
56.240 7.66362
56.245 7.852559
56.250 7.931707
56.255 7.790043
56.260 7.698729
56.265 7.776027
56.270 7.538662
56.275 7.454222
56.280 7.472194
56.285 7.426202
56.290 7.402394
56.295 7.175672
56.300 7.040703
56.305 7.28876
56.310 7.303621
56.315 7.271613
56.320 7.299948
56.325 7.714583
56.330 8.015686
56.335 7.897813
56.340 7.706252
56.345 7.593474
56.350 7.52203
56.355 7.310179
56.360 6.642374
56.365 6.661034
56.370 6.837353
56.375 7.077959
56.380 6.750877
56.385 6.52305
56.390 6.431359
56.395 6.347986
56.400 6.110697
56.405 6.159547
56.410 6.143972
56.415 6.238369
56.420 6.323587
56.425 6.562736
56.430 6.940199
56.435 6.831027
56.440 6.464551
56.445 6.432158
56.450 6.885838
56.455 7.547336
56.460 7.474063
56.465 7.158235
56.470 7.231764
56.475 7.446387
56.480 7.324969
56.485 7.097348
56.490 7.007986
56.495 7.009351
56.500 7.041612
56.505 7.335588
56.510 7.398542
56.515 7.541975
56.520 7.412807
56.525 6.954101
56.530 7.06289
56.535 7.122815
56.540 6.793316
56.545 7.129383
56.550 7.647842
56.555 7.935916
56.560 8.523372
56.565 8.817092
56.570 9.048361
56.575 9.337402
56.580 9.240273
56.585 8.512193
56.590 8.08327
56.595 7.400659
56.600 6.774225
56.605 6.640491
56.610 6.404794
56.615 6.098382
56.620 6.403467
56.625 6.309918
56.630 6.362614
56.635 6.429028
56.640 6.516637
56.645 6.133466
56.650 5.779155
56.655 5.835732
56.660 5.999506
56.665 5.889831
56.670 6.019198
56.675 5.835901
56.680 6.010747
56.685 6.444702
56.690 6.824973
56.695 7.121796
56.700 7.5136
56.705 7.552575
56.710 7.765256
56.715 7.890502
56.720 7.512655
56.725 7.121616
56.730 7.00931
56.735 7.058733
56.740 7.209413
56.745 7.455935
56.750 7.450455
56.755 7.696342
56.760 7.992975
56.765 8.206735
56.770 8.091784
56.775 8.124814
56.780 8.012598
56.785 8.145279
56.790 8.017603
56.795 7.477351
56.800 7.320646
56.805 7.051016
56.810 7.159438
56.815 7.039281
56.820 7.113588
56.825 7.133133
56.830 7.134293
56.835 6.760466
56.840 6.822081
56.845 6.583105
56.850 6.501503
56.855 6.310078
56.860 6.323632
56.865 6.618383
56.870 6.971014
56.875 6.756462
56.880 6.645971
56.885 6.739449
56.890 6.798758
56.895 6.62425
56.900 6.451323
56.905 6.177712
56.910 5.935407
56.915 6.007974
56.920 5.761951
56.925 5.721162
56.930 5.852478
56.935 5.730558
56.940 5.629453
56.945 6.200191
56.950 6.329317
56.955 6.389057
56.960 6.516551
56.965 6.650984
56.970 6.786868
56.975 7.380206
56.980 7.195339
56.985 7.086797
56.990 7.624941
56.995 7.712561
57.000 7.473855
57.005 7.476818
57.010 7.020857
57.015 6.905469
57.020 6.84326
57.025 6.980216
57.030 7.103389
57.035 7.574479
57.040 7.632019
57.045 8.060762
57.050 8.650521
57.055 8.436392
57.060 8.053684
57.065 7.854001
57.070 7.460824
57.075 7.087986
57.080 6.475007
57.085 6.121979
57.090 5.851677
57.095 5.46311
57.100 5.303382
57.105 5.384682
57.110 5.978561
57.115 5.9648
57.120 6.171033
57.125 6.751634
57.130 7.060076
57.135 7.193149
57.140 7.081347
57.145 6.985133
57.150 7.087252
57.155 6.948396
57.160 6.781704
57.165 6.613757
57.170 6.510832
57.175 6.430264
57.180 6.095815
57.185 5.811099
57.190 5.396518
57.195 5.228065
57.200 5.603518
57.205 5.908872
57.210 5.646275
57.215 5.597497
57.220 5.870999
57.225 5.971241
57.230 5.989004
57.235 5.948275
57.240 6.003508
57.245 6.41143
57.250 6.571853
57.255 6.862668
57.260 7.162428
57.265 7.28486
57.270 7.062436
57.275 7.24037
57.280 8.041041
57.285 7.968887
57.290 7.829526
57.295 7.578839
57.300 7.601093
57.305 7.728333
57.310 7.104575
57.315 6.348011
57.320 6.492785
57.325 6.520167
57.330 6.690006
57.335 6.862847
57.340 6.556054
57.345 6.514137
57.350 6.324795
57.355 6.274984
57.360 6.435172
57.365 6.418302
57.370 6.087976
57.375 6.491243
57.380 6.751524
57.385 6.648152
57.390 6.61007
57.395 6.823499
57.400 6.620863
57.405 6.749347
57.410 6.53597
57.415 6.836027
57.420 6.950385
57.425 6.886057
57.430 6.662618
57.435 6.773609
57.440 6.709926
57.445 6.771235
57.450 6.766224
57.455 7.06758
57.460 7.140811
57.465 6.734345
57.470 6.582791
57.475 6.744599
57.480 7.192661
57.485 6.961818
57.490 6.776772
57.495 6.613087
57.500 7.208217
57.505 7.843558
57.510 7.562428
57.515 6.602422
57.520 6.768944
57.525 6.755987
57.530 6.770089
57.535 6.912589
57.540 6.66654
57.545 6.773485
57.550 7.172028
57.555 7.175953
57.560 7.311512
57.565 7.185967
57.570 6.840779
57.575 6.325913
57.580 6.200448
57.585 6.202085
57.590 6.162932
57.595 6.563769
57.600 6.645045
57.605 6.720023
57.610 7.714063
57.615 8.278066
57.620 8.328767
57.625 8.186165
57.630 7.620909
57.635 8.036753
57.640 7.71362
57.645 6.906025
57.650 6.279392
57.655 6.403899
57.660 6.984888
57.665 7.349056
57.670 6.694366
57.675 6.754725
57.680 6.916095
57.685 7.209834
57.690 7.254897
57.695 6.845603
57.700 7.070613
57.705 7.512206
57.710 7.619928
57.715 7.664863
57.720 7.578612
57.725 7.325145
57.730 7.30007
57.735 6.912457
57.740 6.917602
57.745 6.741939
57.750 6.678252
57.755 6.577894
57.760 6.62833
57.765 6.371996
57.770 6.244525
57.775 6.139884
57.780 6.248153
57.785 6.187015
57.790 6.396791
57.795 6.629879
57.800 6.937997
57.805 7.229148
57.810 7.480612
57.815 7.611415
57.820 7.591871
57.825 7.153965
57.830 7.082305
57.835 6.898207
57.840 6.643116
57.845 6.514747
57.850 6.67405
57.855 6.658176
57.860 6.761571
57.865 6.778459
57.870 6.759736
57.875 6.848295
57.880 6.497179
57.885 6.454696
57.890 6.600403
57.895 6.380138
57.900 6.477597
57.905 6.587694
57.910 6.648253
57.915 6.774912
57.920 7.017654
57.925 7.350729
57.930 7.49438
57.935 7.266639
57.940 7.199887
57.945 7.20805
57.950 6.929725
57.955 6.62348
57.960 6.459291
57.965 6.276253
57.970 5.908266
57.975 5.655926
57.980 5.690241
57.985 5.970249
57.990 5.635158
57.995 5.680395
58.000 6.118939
58.005 6.795956
58.010 7.277514
58.015 7.257548
58.020 7.371728
58.025 7.550228
58.030 7.840781
58.035 7.678363
58.040 7.79243
58.045 7.523842
58.050 7.430657
58.055 7.723056
58.060 7.682803
58.065 7.280843
58.070 7.257201
58.075 6.708128
58.080 7.137364
58.085 7.165969
58.090 6.8641
58.095 6.98504
58.100 7.124276
58.105 7.223596
58.110 7.261787
58.115 7.012696
58.120 6.955206
58.125 6.818741
58.130 6.670926
58.135 6.495406
58.140 6.517848
58.145 6.591444
58.150 6.216667
58.155 6.279824
58.160 6.361885
58.165 6.298234
58.170 6.433113
58.175 6.483387
58.180 6.683808
58.185 6.663126
58.190 6.648625
58.195 6.783982
58.200 6.914605
58.205 7.003043
58.210 7.055812
58.215 7.052202
58.220 7.405148
58.225 7.504856
58.230 7.332067
58.235 7.211874
58.240 7.206561
58.245 7.199382
58.250 7.159766
58.255 7.326933
58.260 7.695708
58.265 7.94943
58.270 8.074058
58.275 7.928409
58.280 7.619326
58.285 7.438453
58.290 7.096003
58.295 6.386243
58.300 5.858015
58.305 5.499284
58.310 5.484697
58.315 5.434453
58.320 5.394509
58.325 5.23197
58.330 5.399161
58.335 5.827903
58.340 5.785263
58.345 5.701218
58.350 6.040457
58.355 6.215076
58.360 6.391479
58.365 6.581574
58.370 6.630337
58.375 7.304048
58.380 7.311099
58.385 7.132934
58.390 7.158072
58.395 6.733638
58.400 6.61184
58.405 6.531053
58.410 6.24581
58.415 6.563194
58.420 6.652862
58.425 6.506685
58.430 6.888002
58.435 7.282751
58.440 7.082794
58.445 6.762202
58.450 6.506875
58.455 6.581373
58.460 6.766991
58.465 6.570453
58.470 6.337892
58.475 6.337245
58.480 6.357631
58.485 6.365171
58.490 6.611643
58.495 6.930246
58.500 7.066265
58.505 7.456793
58.510 7.754301
58.515 7.974741
58.520 7.74726
58.525 7.21575
58.530 7.359945
58.535 7.380061
58.540 7.057565
58.545 7.108937
58.550 7.051495
58.555 7.417121
58.560 7.67064
58.565 7.333354
58.570 7.140732
58.575 7.134
58.580 7.33732
58.585 7.597548
58.590 7.643703
58.595 7.798599
58.600 7.769568
58.605 7.914528
58.610 7.909066
58.615 7.444256
58.620 7.217333
58.625 7.453979
58.630 7.556583
58.635 7.579566
58.640 7.398299
58.645 7.542263
58.650 7.960199
58.655 8.238573
58.660 8.085301
58.665 7.715559
58.670 7.947075
58.675 8.49729
58.680 8.802594
58.685 8.563776
58.690 8.416503
58.695 8.519669
58.700 8.592385
58.705 8.338737
58.710 7.972178
58.715 7.539298
58.720 7.811955
58.725 7.759941
58.730 7.730066
58.735 7.900135
58.740 7.902867
58.745 7.733774
58.750 7.74531
58.755 7.54435
58.760 7.691261
58.765 7.6264
58.770 7.844891
58.775 8.03596
58.780 8.220308
58.785 8.181174
58.790 8.193674
58.795 8.034929
58.800 7.967302
58.805 7.43311
58.810 7.611011
58.815 7.341669
58.820 7.120855
58.825 6.769696
58.830 6.474123
58.835 6.536768
58.840 6.958805
58.845 6.735465
58.850 6.979149
58.855 7.168569
58.860 7.487432
58.865 7.577734
58.870 7.402701
58.875 6.894886
58.880 6.99114
58.885 7.065407
58.890 7.282827
58.895 7.271281
58.900 7.078201
58.905 7.171163
58.910 7.523601
58.915 7.6294
58.920 7.204232
58.925 6.955435
58.930 7.088704
58.935 7.083932
58.940 7.344326
58.945 7.275222
58.950 7.069047
58.955 7.411944
58.960 7.806615
58.965 8.221978
58.970 8.505728
58.975 8.542176
58.980 8.543678
58.985 8.685107
58.990 8.510988
58.995 7.87604
59.000 7.135756
59.005 6.882452
59.010 6.623103
59.015 6.665612
59.020 6.6954
59.025 6.848203
59.030 7.010677
59.035 7.221251
59.040 7.229956
59.045 7.747825
59.050 7.760816
59.055 7.620902
59.060 7.484738
59.065 7.694531
59.070 7.833229
59.075 7.798616
59.080 7.24122
59.085 7.114789
59.090 6.952112
59.095 7.396427
59.100 7.423054
59.105 7.154768
59.110 7.317667
59.115 7.292576
59.120 7.513303
59.125 7.695284
59.130 7.580706
59.135 7.722397
59.140 7.838776
59.145 7.698593
59.150 7.812008
59.155 7.780559
59.160 7.932805
59.165 7.680218
59.170 7.75568
59.175 7.749148
59.180 7.396997
59.185 7.374951
59.190 7.917431
59.195 7.90489
59.200 7.930837
59.205 7.670041
59.210 7.865673
59.215 8.065363
59.220 8.058069
59.225 7.651343
59.230 8.051065
59.235 8.408834
59.240 8.321479
59.245 8.059689
59.250 7.974319
59.255 7.85409
59.260 7.935114
59.265 7.32048
59.270 6.726318
59.275 6.480506
59.280 6.722238
59.285 7.046535
59.290 7.267336
59.295 7.21536
59.300 7.209965
59.305 7.552723
59.310 7.703523
59.315 7.685254
59.320 7.6718
59.325 7.300358
59.330 7.545157
59.335 7.705352
59.340 7.876238
59.345 8.257118
59.350 8.151484
59.355 8.011552
59.360 7.884901
59.365 7.742112
59.370 7.713473
59.375 7.703614
59.380 7.288793
59.385 7.316493
59.390 7.296102
59.395 7.134547
59.400 6.911351
59.405 6.682544
59.410 6.656855
59.415 6.841544
59.420 6.651966
59.425 6.437756
59.430 6.416794
59.435 6.3998
59.440 6.375186
59.445 6.605289
59.450 6.725348
59.455 7.156709
59.460 7.895279
59.465 8.318962
59.470 8.543712
59.475 8.62232
59.480 8.605883
59.485 8.466969
59.490 8.097325
59.495 7.641748
59.500 7.236285
59.505 7.271503
59.510 7.242311
59.515 7.296258
59.520 7.301991
59.525 7.108086
59.530 6.963469
59.535 7.255948
59.540 7.193134
59.545 7.236733
59.550 7.334946
59.555 7.443129
59.560 7.686839
59.565 7.739779
59.570 7.630453
59.575 7.835124
59.580 7.646143
59.585 7.386856
59.590 7.512644
59.595 7.36168
59.600 7.528034
59.605 7.631495
59.610 7.569594
59.615 7.439157
59.620 7.25581
59.625 7.254386
59.630 7.567595
59.635 7.850315
59.640 7.853889
59.645 7.978695
59.650 8.758849
59.655 8.901498
59.660 8.816829
59.665 8.260681
59.670 8.238381
59.675 8.171646
59.680 7.894642
59.685 7.222015
59.690 7.33429
59.695 7.477127
59.700 7.748521
59.705 7.44368
59.710 7.579598
59.715 7.510075
59.720 7.288276
59.725 7.024496
59.730 6.883984
59.735 7.120419
59.740 7.094823
59.745 6.920994
59.750 7.307699
59.755 7.696115
59.760 7.915693
59.765 7.705619
59.770 7.915029
59.775 7.970796
59.780 8.230077
59.785 8.050684
59.790 7.783801
59.795 7.621851
59.800 7.759694
59.805 7.760756
59.810 7.592004
59.815 7.596297
59.820 7.376812
59.825 7.347933
59.830 7.478516
59.835 7.297159
59.840 6.904074
59.845 6.651548
59.850 6.449078
59.855 6.825899
59.860 7.044698
59.865 7.011797
59.870 6.93057
59.875 6.950786
59.880 7.308373
59.885 7.434785
59.890 7.202901
59.895 6.860845
59.900 6.674744
59.905 7.191411
59.910 7.310961
59.915 6.88603
59.920 6.479555
59.925 6.861897
59.930 7.087701
59.935 6.940238
59.940 6.602803
59.945 6.828443
59.950 7.285666
59.955 7.469141
59.960 7.206387
59.965 7.213106
59.970 7.506207
59.975 7.467836
59.980 7.087714
59.985 7.304649
59.990 7.459447
59.995 7.635301
60.000 7.54641
60.005 7.420325
60.010 7.304361
60.015 7.271406
60.020 6.746641
60.025 6.286134
60.030 5.778171
60.035 6.028502
60.040 6.212699
60.045 5.971635
60.050 5.751821
60.055 5.726337
60.060 5.930837
60.065 6.356469
60.070 6.382863
60.075 6.182075
60.080 6.408868
60.085 6.88471
60.090 7.303281
60.095 7.725653
60.100 7.757271
60.105 7.82773
60.110 7.900937
60.115 7.845827
60.120 7.829165
60.125 7.913983
60.130 7.488552
60.135 7.829948
60.140 8.082771
60.145 8.430086
60.150 8.621424
60.155 8.340807
60.160 8.264988
60.165 8.372385
60.170 7.909143
60.175 7.26749
60.180 7.349285
60.185 7.437868
60.190 7.446971
60.195 7.678072
60.200 7.861246
60.205 8.176856
60.210 8.54035
60.215 8.359834
60.220 8.131802
60.225 8.340418
60.230 8.146522
60.235 8.1063
60.240 7.834706
60.245 7.538186
60.250 7.472925
60.255 7.554379
60.260 7.229936
60.265 7.027236
60.270 6.94269
60.275 7.107052
60.280 7.36309
60.285 7.517719
60.290 7.485719
60.295 7.468739
60.300 7.545575
60.305 7.627279
60.310 7.283071
60.315 7.568102
60.320 7.555312
60.325 7.491149
60.330 7.727373
60.335 7.560609
60.340 7.830634
60.345 8.180216
60.350 7.745526
60.355 7.926022
60.360 7.963085
60.365 7.97995
60.370 8.213151
60.375 7.86908
60.380 7.700034
60.385 7.445215
60.390 7.223156
60.395 7.457403
60.400 7.397177
60.405 7.138797
60.410 7.036249
60.415 7.184204
60.420 7.598013
60.425 7.497197
60.430 7.526698
60.435 7.403484
60.440 7.593173
60.445 7.894217
60.450 7.704665
60.455 7.479501
60.460 7.844568
60.465 7.910403
60.470 7.783393
60.475 7.564612
60.480 7.373251
60.485 7.271124
60.490 7.074971
60.495 6.827213
60.500 6.712539
60.505 6.867644
60.510 7.110138
60.515 7.339475
60.520 7.806542
60.525 7.828743
60.530 7.699957
60.535 7.551584
60.540 7.596051
60.545 7.287441
60.550 7.163523
60.555 6.849821
60.560 7.140347
60.565 7.426324
60.570 7.759493
60.575 7.685779
60.580 7.802903
60.585 7.773998
60.590 7.6576
60.595 7.348909
60.600 7.553931
60.605 7.234355
60.610 7.06858
60.615 6.895822
60.620 7.190791
60.625 7.558404
60.630 7.716511
60.635 7.365444
60.640 7.335721
60.645 7.223731
60.650 7.332549
60.655 7.095142
60.660 6.90063
60.665 6.916942
60.670 6.841441
60.675 7.013457
60.680 7.398232
60.685 7.68856
60.690 7.862695
60.695 8.186497
60.700 7.898865
60.705 7.685266
60.710 7.268095
60.715 7.117896
60.720 6.695909
60.725 6.681354
60.730 6.37687
60.735 6.470635
60.740 6.800477
60.745 7.283834
60.750 7.400615
60.755 7.633628
60.760 7.626117
60.765 7.973351
60.770 8.304729
60.775 8.138801
60.780 7.893176
60.785 7.849489
60.790 7.741688
60.795 7.840977
60.800 7.769681
60.805 7.61139
60.810 7.54428
60.815 7.484354
60.820 7.781003
60.825 7.854256
60.830 7.700112
60.835 7.573996
60.840 7.514941
60.845 7.567935
60.850 7.394038
60.855 7.25302
60.860 7.218571
60.865 6.943715
60.870 7.055673
60.875 6.879417
60.880 7.037669
60.885 7.411832
60.890 7.250855
60.895 7.171703
60.900 7.231429
60.905 7.017718
60.910 7.285981
60.915 7.504493
60.920 7.543813
60.925 7.47852
60.930 7.724109
60.935 7.870775
60.940 8.040587
60.945 7.876426
60.950 8.179739
60.955 8.190079
60.960 7.970085
60.965 7.486376
60.970 7.264498
60.975 7.05458
60.980 7.198645
60.985 6.807795
60.990 7.002795
60.995 7.032171
61.000 7.391064
61.005 7.690769
61.010 7.693471
61.015 7.810188
61.020 7.717858
61.025 7.777697
61.030 8.040891
61.035 7.876285
61.040 7.702374
61.045 7.664997
61.050 7.724382
61.055 7.406109
61.060 6.983611
61.065 6.890935
61.070 7.118609
61.075 7.263495
61.080 7.115562
61.085 6.771801
61.090 6.941729
61.095 6.77513
61.100 6.776607
61.105 6.644767
61.110 6.478709
61.115 6.802366
61.120 7.099174
61.125 7.353127
61.130 7.511302
61.135 7.482987
61.140 7.603556
61.145 7.348811
61.150 6.911564
61.155 6.443074
61.160 6.277178
61.165 6.476604
61.170 6.330185
61.175 6.173098
61.180 6.201536
61.185 6.422835
61.190 6.525568
61.195 6.89135
61.200 7.232638
61.205 7.465262
61.210 7.773886
61.215 7.965612
61.220 7.843378
61.225 8.004128
61.230 7.98123
61.235 7.587307
61.240 7.174783
61.245 7.106965
61.250 7.320606
61.255 7.608244
61.260 7.500015
61.265 7.338202
61.270 7.487334
61.275 7.833935
61.280 7.419277
61.285 7.392757
61.290 7.461532
61.295 7.356205
61.300 6.897134
61.305 6.912371
61.310 6.875017
61.315 7.555571
61.320 7.691241
61.325 7.838917
61.330 7.933536
61.335 7.923366
61.340 7.521832
61.345 7.394797
61.350 7.453512
61.355 7.27869
61.360 7.094247
61.365 7.105456
61.370 7.369625
61.375 7.963424
61.380 8.037358
61.385 7.330775
61.390 7.209121
61.395 7.234783
61.400 7.545162
61.405 7.629812
61.410 7.418308
61.415 7.331942
61.420 7.607316
61.425 7.538018
61.430 7.487808
61.435 7.300017
61.440 7.047939
61.445 7.032619
61.450 7.046739
61.455 6.993274
61.460 7.037335
61.465 7.016614
61.470 6.712628
61.475 6.792661
61.480 6.924671
61.485 6.742847
61.490 6.870981
61.495 6.983943
61.500 6.72151
61.505 6.855895
61.510 6.768323
61.515 6.667769
61.520 6.845428
61.525 6.828189
61.530 6.999598
61.535 7.36788
61.540 7.493093
61.545 7.510743
61.550 7.661689
61.555 7.943817
61.560 7.811955
61.565 7.481155
61.570 7.368844
61.575 7.415529
61.580 7.380511
61.585 7.125951
61.590 6.858866
61.595 6.929583
61.600 6.855057
61.605 6.655585
61.610 6.624577
61.615 7.045773
61.620 7.20185
61.625 7.290491
61.630 7.268189
61.635 7.559441
61.640 8.330607
61.645 8.66643
61.650 8.022504
61.655 7.748566
61.660 7.668118
61.665 7.515893
61.670 7.366428
61.675 6.887187
61.680 6.553547
61.685 6.919229
61.690 6.784796
61.695 6.599289
61.700 7.029574
61.705 7.169253
61.710 7.006753
61.715 7.075635
61.720 7.149748
61.725 7.185632
61.730 7.758413
61.735 7.891141
61.740 7.79875
61.745 7.542049
61.750 7.409591
61.755 7.213314
61.760 7.430161
61.765 6.789861
61.770 6.469171
61.775 6.587984
61.780 7.029876
61.785 7.311792
61.790 7.436707
61.795 7.665237
61.800 7.896988
61.805 8.035376
61.810 8.044831
61.815 7.672809
61.820 7.658033
61.825 7.940187
61.830 7.467319
61.835 7.283113
61.840 7.230494
61.845 7.388435
61.850 7.878999
61.855 8.019487
61.860 7.766526
61.865 8.183812
61.870 8.640429
61.875 8.765117
61.880 8.65169
61.885 8.397198
61.890 7.969678
61.895 8.22906
61.900 8.39477
61.905 7.993028
61.910 7.738505
61.915 7.527832
61.920 7.589942
61.925 7.591587
61.930 7.405529
61.935 7.682939
61.940 7.839543
61.945 7.896852
61.950 7.925935
61.955 7.652619
61.960 8.09917
61.965 7.989603
61.970 7.295329
61.975 7.034855
61.980 6.957521
61.985 7.299898
61.990 7.813135
61.995 7.411505
62.000 7.426434
62.005 7.582073
62.010 7.829246
62.015 7.825255
62.020 7.405506
62.025 7.474922
62.030 7.739305
62.035 7.461391
62.040 7.064543
62.045 6.899873
62.050 6.936767
62.055 7.292254
62.060 7.151382
62.065 6.935656
62.070 7.011376
62.075 7.574372
62.080 7.672497
62.085 7.402981
62.090 7.098564
62.095 6.801731
62.100 6.73687
62.105 6.916182
62.110 6.99108
62.115 6.827649
62.120 7.050492
62.125 6.806506
62.130 6.835832
62.135 7.103684
62.140 6.761562
62.145 6.455642
62.150 6.536463
62.155 6.850835
62.160 7.185876
62.165 7.461631
62.170 8.042633
62.175 8.571752
62.180 8.948365
62.185 8.816498
62.190 8.72006
62.195 8.879773
62.200 8.426272
62.205 7.494768
62.210 7.205378
62.215 7.227045
62.220 7.500436
62.225 7.385356
62.230 7.341831
62.235 7.438906
62.240 7.882902
62.245 8.023255
62.250 7.936224
62.255 7.933386
62.260 7.90001
62.265 7.753738
62.270 7.817302
62.275 7.872429
62.280 7.942881
62.285 7.993141
62.290 8.133841
62.295 8.030281
62.300 8.064457
62.305 7.782579
62.310 7.715312
62.315 7.449383
62.320 7.429807
62.325 7.36237
62.330 7.383144
62.335 7.337843
62.340 7.051253
62.345 6.752177
62.350 6.617121
62.355 6.184216
62.360 6.121083
62.365 6.424269
62.370 6.585847
62.375 7.004795
62.380 7.445124
62.385 7.731197
62.390 8.091753
62.395 7.854875
62.400 7.58785
62.405 7.529932
62.410 7.740228
62.415 7.928579
62.420 8.105882
62.425 7.902662
62.430 8.021779
62.435 8.213449
62.440 8.19451
62.445 8.005696
62.450 7.921387
62.455 7.886914
62.460 8.170299
62.465 8.152878
62.470 8.036814
62.475 8.150737
62.480 8.330802
62.485 7.987217
62.490 7.886897
62.495 8.230053
62.500 8.639118
62.505 8.663505
62.510 8.612993
62.515 8.343025
62.520 8.349804
62.525 8.230905
62.530 7.748084
62.535 7.187912
62.540 7.421654
62.545 7.537694
62.550 7.621346
62.555 7.666817
62.560 7.390975
62.565 7.488904
62.570 7.655633
62.575 7.41559
62.580 7.316678
62.585 7.184945
62.590 7.358682
62.595 7.884599
62.600 8.022279
62.605 8.296872
62.610 8.405639
62.615 8.088483
62.620 7.994401
62.625 8.029113
62.630 7.943832
62.635 7.941757
62.640 7.560766
62.645 7.613482
62.650 8.027039
62.655 8.036849
62.660 7.810844
62.665 8.120615
62.670 8.057404
62.675 8.117669
62.680 8.432946
62.685 8.464017
62.690 8.638776
62.695 8.776184
62.700 8.206462
62.705 8.117069
62.710 8.116004
62.715 7.600125
62.720 7.612663
62.725 7.915951
62.730 7.823407
62.735 8.325221
62.740 8.799319
62.745 8.804977
62.750 9.26431
62.755 9.157021
62.760 8.82155
62.765 8.758526
62.770 8.533257
62.775 8.469114
62.780 8.7406
62.785 8.814921
62.790 8.983445
62.795 9.18938
62.800 9.522942
62.805 9.784779
62.810 9.472883
62.815 8.940583
62.820 8.798031
62.825 8.853098
62.830 8.909635
62.835 8.474119
62.840 8.000636
62.845 8.216519
62.850 8.531165
62.855 8.603234
62.860 8.459579
62.865 8.195155
62.870 8.431204
62.875 8.542982
62.880 8.927686
62.885 9.027693
62.890 8.576907
62.895 8.304643
62.900 8.502652
62.905 8.40733
62.910 8.257267
62.915 7.619248
62.920 7.059462
62.925 7.254307
62.930 7.3335
62.935 7.425579
62.940 7.577334
62.945 7.487753
62.950 7.514799
62.955 7.828279
62.960 7.93329
62.965 8.048547
62.970 8.410265
62.975 8.664621
62.980 8.83511
62.985 9.191434
62.990 9.337283
62.995 9.303855
63.000 9.528188
63.005 8.739806
63.010 8.909397
63.015 9.026389
63.020 8.852328
63.025 9.113764
63.030 8.918581
63.035 8.976215
63.040 9.397081
63.045 9.192031
63.050 9.242576
63.055 9.059791
63.060 8.745018
63.065 8.870416
63.070 9.089317
63.075 9.005722
63.080 8.734357
63.085 8.422617
63.090 8.375674
63.095 8.394503
63.100 8.378353
63.105 7.947704
63.110 7.940758
63.115 8.393376
63.120 8.498665
63.125 8.742683
63.130 8.86078
63.135 8.962526
63.140 8.926308
63.145 8.795424
63.150 8.425463
63.155 8.049932
63.160 8.018038
63.165 7.705947
63.170 7.335637
63.175 7.429224
63.180 7.176822
63.185 7.153479
63.190 7.474973
63.195 7.379673
63.200 7.666696
63.205 7.746554
63.210 7.60514
63.215 7.736489
63.220 8.010062
63.225 7.704257
63.230 7.571003
63.235 7.505514
63.240 7.455142
63.245 7.184116
63.250 7.153905
63.255 7.231555
63.260 7.586378
63.265 7.989325
63.270 7.925026
63.275 8.095267
63.280 8.261539
63.285 8.016885
63.290 7.476926
63.295 7.037735
63.300 7.465424
63.305 7.806522
63.310 7.954307
63.315 8.007159
63.320 8.233408
63.325 8.686104
63.330 8.607787
63.335 8.327629
63.340 8.215185
63.345 8.071905
63.350 7.982349
63.355 8.027526
63.360 7.936699
63.365 8.041069
63.370 7.785091
63.375 7.767947
63.380 8.04052
63.385 8.1272
63.390 8.622993
63.395 9.141932
63.400 9.183033
63.405 9.233796
63.410 8.891984
63.415 8.621816
63.420 8.578161
63.425 8.214117
63.430 7.970502
63.435 7.897844
63.440 7.917451
63.445 7.902415
63.450 7.870021
63.455 7.896857
63.460 7.69532
63.465 7.837821
63.470 7.710471
63.475 7.654693
63.480 7.847569
63.485 8.015944
63.490 8.665135
63.495 8.72925
63.500 8.540794
63.505 8.496153
63.510 8.672972
63.515 8.470556
63.520 8.245
63.525 7.607434
63.530 7.600592
63.535 7.693044
63.540 7.872784
63.545 7.729207
63.550 7.727716
63.555 7.670352
63.560 7.87858
63.565 8.041109
63.570 7.951161
63.575 7.731062
63.580 7.627652
63.585 7.780103
63.590 8.160207
63.595 8.200191
63.600 7.883234
63.605 8.085249
63.610 8.191913
63.615 8.125452
63.620 8.154139
63.625 7.867645
63.630 7.553082
63.635 7.640559
63.640 7.459701
63.645 7.768255
63.650 8.01814
63.655 8.016948
63.660 8.349956
63.665 8.462888
63.670 8.408296
63.675 8.509312
63.680 8.303021
63.685 8.24996
63.690 8.009054
63.695 7.606803
63.700 7.526577
63.705 7.494013
63.710 7.269825
63.715 6.932395
63.720 6.750142
63.725 6.858547
63.730 7.254188
63.735 7.056592
63.740 6.956365
63.745 6.891364
63.750 7.276063
63.755 7.385894
63.760 6.854976
63.765 6.866074
63.770 7.325072
63.775 7.260344
63.780 7.554757
63.785 7.606292
63.790 7.959026
63.795 8.160371
63.800 7.845183
63.805 7.407553
63.810 7.406505
63.815 7.136504
63.820 6.636636
63.825 6.412349
63.830 6.480108
63.835 6.81074
63.840 7.242133
63.845 7.618151
63.850 8.073415
63.855 8.393994
63.860 8.867401
63.865 9.013686
63.870 8.556338
63.875 8.668704
63.880 8.670333
63.885 8.646692
63.890 8.854063
63.895 8.771188
63.900 8.799783
63.905 8.480846
63.910 8.252568
63.915 7.899687
63.920 7.332339
63.925 7.017608
63.930 6.795084
63.935 6.942709
63.940 7.332609
63.945 7.127779
63.950 7.467493
63.955 8.15469
63.960 8.211389
63.965 8.581781
63.970 8.708392
63.975 8.838148
63.980 9.122972
63.985 9.30561
63.990 9.059705
63.995 8.886171
64.000 8.303309
64.005 8.424026
64.010 8.818838
64.015 8.720672
64.020 8.762867
64.025 8.62611
64.030 8.963368
64.035 9.34602
64.040 8.847211
64.045 8.390644
64.050 8.480133
64.055 8.347028
64.060 8.539777
64.065 8.57433
64.070 8.704082
64.075 8.678227
64.080 8.508686
64.085 8.606245
64.090 8.467504
64.095 8.281507
64.100 8.253916
64.105 8.134347
64.110 8.550754
64.115 8.659105
64.120 8.339331
64.125 8.331605
64.130 8.30075
64.135 8.103292
64.140 8.177105
64.145 7.902523
64.150 8.128111
64.155 8.538915
64.160 9.06886
64.165 9.256479
64.170 9.698549
64.175 9.594914
64.180 9.489743
64.185 9.386554
64.190 9.198034
64.195 9.133906
64.200 9.316514
64.205 9.145027
64.210 9.093943
64.215 9.315194
64.220 9.548068
64.225 9.589702
64.230 9.774316
64.235 9.500772
64.240 9.238073
64.245 9.608964
64.250 9.995609
64.255 9.703627
64.260 9.769328
64.265 9.504339
64.270 9.518186
64.275 9.476576
64.280 9.101238
64.285 8.939096
64.290 9.160078
64.295 8.778026
64.300 8.798339
64.305 8.647676
64.310 8.601568
64.315 8.939614
64.320 8.876501
64.325 9.348775
64.330 9.518813
64.335 9.535457
64.340 9.979453
64.345 10.254199
64.350 9.971012
64.355 10.072495
64.360 9.935435
64.365 9.885574
64.370 9.75881
64.375 9.602811
64.380 9.619158
64.385 9.956878
64.390 9.73529
64.395 9.726129
64.400 10.138192
64.405 10.019758
64.410 10.089449
64.415 9.709967
64.420 9.905782
64.425 10.222286
64.430 10.030985
64.435 9.338557
64.440 9.739183
64.445 10.004118
64.450 10.196939
64.455 9.987413
64.460 10.076954
64.465 10.277656
64.470 10.708126
64.475 10.660392
64.480 10.815345
64.485 10.796792
64.490 10.505519
64.495 10.385051
64.500 10.145066
64.505 10.435739
64.510 10.317731
64.515 10.336182
64.520 10.401963
64.525 10.466954
64.530 10.278399
64.535 10.530763
64.540 10.710928
64.545 10.588767
64.550 10.430936
64.555 10.4874
64.560 10.513225
64.565 10.703087
64.570 10.333244
64.575 10.063044
64.580 10.138105
64.585 10.220094
64.590 9.911467
64.595 9.55615
64.600 9.688018
64.605 10.00531
64.610 9.610134
64.615 9.667411
64.620 9.921762
64.625 10.288682
64.630 10.468403
64.635 10.319488
64.640 10.368634
64.645 10.871369
64.650 10.874895
64.655 10.488396
64.660 10.648302
64.665 10.888791
64.670 11.192968
64.675 11.619454
64.680 11.504959
64.685 11.571269
64.690 11.643826
64.695 10.831773
64.700 10.589488
64.705 10.308895
64.710 9.69578
64.715 9.625125
64.720 9.502212
64.725 9.846779
64.730 10.738108
64.735 10.562703
64.740 10.740178
64.745 11.268166
64.750 11.376336
64.755 11.730083
64.760 12.118158
64.765 11.912847
64.770 12.352056
64.775 12.58723
64.780 12.458539
64.785 12.690225
64.790 13.050726
64.795 12.542471
64.800 12.582817
64.805 12.480176
64.810 12.131481
64.815 12.088908
64.820 12.082854
64.825 11.521154
64.830 11.280132
64.835 11.499371
64.840 11.434675
64.845 11.58611
64.850 11.984397
64.855 11.799629
64.860 12.004715
64.865 12.488216
64.870 12.89007
64.875 13.189057
64.880 13.500613
64.885 13.364616
64.890 13.693097
64.895 14.046093
64.900 14.343812
64.905 14.072125
64.910 14.343904
64.915 14.701794
64.920 15.177187
64.925 15.210361
64.930 14.910371
64.935 14.607063
64.940 14.313305
64.945 14.158308
64.950 14.862392
64.955 15.132762
64.960 15.268942
64.965 15.566023
64.970 15.870502
64.975 16.243746
64.980 16.426517
64.985 16.158369
64.990 16.619833
64.995 16.683268
65.000 16.70089
65.005 16.808748
65.010 17.176407
65.015 17.153637
65.020 17.336262
65.025 16.987673
65.030 17.359598
65.035 16.999441
65.040 16.62488
65.045 16.857918
65.050 16.623394
65.055 15.930107
65.060 15.737761
65.065 16.074224
65.070 16.351738
65.075 16.221458
65.080 15.695154
65.085 16.045885
65.090 16.645016
65.095 16.498022
65.100 16.102289
65.105 16.482468
65.110 16.912148
65.115 17.225924
65.120 17.095131
65.125 16.764685
65.130 16.826126
65.135 16.077148
65.140 16.026587
65.145 16.010387
65.150 15.753438
65.155 15.26633
65.160 15.590789
65.165 15.856042
65.170 16.490013
65.175 16.554516
65.180 16.299088
65.185 16.409124
65.190 16.524776
65.195 15.94495
65.200 15.422834
65.205 14.903606
65.210 14.705327
65.215 14.923877
65.220 14.716748
65.225 14.747978
65.230 14.551448
65.235 14.595766
65.240 14.92775
65.245 14.623093
65.250 14.224198
65.255 13.805536
65.260 13.511256
65.265 13.148175
65.270 12.994533
65.275 13.024185
65.280 13.421674
65.285 13.202144
65.290 13.090429
65.295 13.036409
65.300 13.471704
65.305 13.268413
65.310 13.409179
65.315 12.737259
65.320 12.856589
65.325 12.772512
65.330 12.48841
65.335 12.310547
65.340 12.235988
65.345 11.621679
65.350 11.429626
65.355 11.282082
65.360 11.771499
65.365 11.982061
65.370 11.793343
65.375 12.013171
65.380 12.203976
65.385 12.305737
65.390 12.601402
65.395 12.463118
65.400 11.876129
65.405 11.898259
65.410 11.395862
65.415 11.356173
65.420 11.885568
65.425 11.655574
65.430 11.362356
65.435 11.146985
65.440 10.529107
65.445 10.747276
65.450 10.223126
65.455 9.49652
65.460 9.318774
65.465 9.604047
65.470 9.476359
65.475 9.554308
65.480 9.061579
65.485 9.396381
65.490 9.615267
65.495 9.757321
65.500 9.536669
65.505 10.074305
65.510 10.1366
65.515 10.292744
65.520 9.830054
65.525 9.421518
65.530 9.614045
65.535 10.035416
65.540 10.031577
65.545 9.613689
65.550 9.774311
65.555 9.895513
65.560 10.109759
65.565 9.507553
65.570 9.259725
65.575 9.388683
65.580 10.322152
65.585 10.554929
65.590 10.520424
65.595 10.608835
65.600 10.88543
65.605 10.887072
65.610 10.473531
65.615 9.854216
65.620 9.576363
65.625 9.423786
65.630 9.30617
65.635 9.277174
65.640 9.428955
65.645 9.921031
65.650 10.218663
65.655 10.118406
65.660 10.502345
65.665 10.82361
65.670 10.97508
65.675 10.603095
65.680 10.417539
65.685 10.702775
65.690 10.677079
65.695 10.573286
65.700 10.431276
65.705 10.110651
65.710 9.983719
65.715 9.95746
65.720 9.69956
65.725 9.994844
65.730 10.211174
65.735 10.632245
65.740 11.362641
65.745 11.613057
65.750 11.520378
65.755 12.264482
65.760 12.109241
65.765 12.141474
65.770 11.758947
65.775 11.453739
65.780 11.505498
65.785 11.162138
65.790 10.25842
65.795 10.227847
65.800 10.094151
65.805 9.74178
65.810 9.735152
65.815 9.415295
65.820 9.475628
65.825 9.798311
65.830 10.104555
65.835 10.090981
65.840 10.399032
65.845 10.267966
65.850 10.12548
65.855 10.076452
65.860 9.857172
65.865 9.434525
65.870 9.427174
65.875 9.059082
65.880 8.946981
65.885 9.394701
65.890 9.394567
65.895 9.404227
65.900 9.594232
65.905 9.608968
65.910 9.917132
65.915 10.116191
65.920 9.809918
65.925 9.599772
65.930 9.328362
65.935 9.399927
65.940 9.028416
65.945 8.976868
65.950 8.639579
65.955 8.869866
65.960 8.729626
65.965 8.978458
65.970 8.800093
65.975 8.789085
65.980 8.470422
65.985 8.462398
65.990 8.59911
65.995 8.83259
66.000 9.035503
66.005 8.653849
66.010 8.755527
66.015 8.864622
66.020 9.055574
66.025 8.789187
66.030 8.728288
66.035 8.391598
66.040 8.809421
66.045 8.794717
66.050 8.652279
66.055 8.524338
66.060 8.438505
66.065 8.412994
66.070 8.495302
66.075 8.311295
66.080 8.116622
66.085 8.104683
66.090 8.131405
66.095 8.176477
66.100 8.26117
66.105 8.030885
66.110 8.124336
66.115 8.145439
66.120 7.789224
66.125 7.739202
66.130 7.702723
66.135 7.655892
66.140 7.589084
66.145 7.435995
66.150 7.775939
66.155 8.481137
66.160 8.786934
66.165 8.711863
66.170 8.572244
66.175 8.628438
66.180 8.573959
66.185 8.382523
66.190 8.31379
66.195 7.946747
66.200 8.198348
66.205 8.11446
66.210 7.965217
66.215 7.972612
66.220 7.770207
66.225 7.290213
66.230 7.322903
66.235 7.347069
66.240 7.434014
66.245 7.614587
66.250 7.534225
66.255 7.584432
66.260 7.688853
66.265 7.682062
66.270 7.620418
66.275 7.665385
66.280 7.487621
66.285 7.435753
66.290 7.673504
66.295 7.672817
66.300 7.751891
66.305 7.428442
66.310 7.420752
66.315 7.649099
66.320 7.707727
66.325 7.685574
66.330 7.723644
66.335 7.625802
66.340 7.73905
66.345 7.781277
66.350 7.956993
66.355 7.957995
66.360 7.932901
66.365 7.705458
66.370 7.455074
66.375 7.521219
66.380 7.395228
66.385 7.446356
66.390 7.345998
66.395 7.315969
66.400 7.572407
66.405 8.008398
66.410 7.676248
66.415 7.52299
66.420 7.520741
66.425 7.732137
66.430 7.741322
66.435 7.545971
66.440 7.592409
66.445 7.733622
66.450 8.197866
66.455 8.042892
66.460 8.041821
66.465 8.144092
66.470 7.809805
66.475 7.561151
66.480 7.911356
66.485 7.63201
66.490 7.568197
66.495 7.563218
66.500 7.944424
66.505 8.318464
66.510 8.262357
66.515 8.010442
66.520 7.956347
66.525 7.816898
66.530 7.47654
66.535 7.192134
66.540 7.422513
66.545 7.46008
66.550 7.502056
66.555 7.733644
66.560 8.080638
66.565 8.510487
66.570 8.547248
66.575 8.595125
66.580 8.6676
66.585 8.25379
66.590 7.912578
66.595 7.583868
66.600 7.655068
66.605 7.683492
66.610 7.385907
66.615 7.585953
66.620 7.743645
66.625 8.036345
66.630 8.066477
66.635 7.746819
66.640 7.667832
66.645 7.636249
66.650 7.615829
66.655 7.515838
66.660 7.111496
66.665 7.114179
66.670 7.223637
66.675 7.525959
66.680 7.58761
66.685 7.426639
66.690 7.825164
66.695 8.454165
66.700 8.360848
66.705 8.45175
66.710 8.347677
66.715 7.946305
66.720 8.259173
66.725 7.956403
66.730 7.352636
66.735 7.206331
66.740 6.607459
66.745 6.380487
66.750 6.751074
66.755 6.231125
66.760 6.681768
66.765 7.022817
66.770 7.353136
66.775 7.650584
66.780 8.264572
66.785 8.512672
66.790 9.016771
66.795 8.685313
66.800 8.817292
66.805 9.174881
66.810 9.131669
66.815 9.024171
66.820 8.691355
66.825 8.682609
66.830 8.988784
66.835 8.876603
66.840 8.394086
66.845 8.469116
66.850 8.02441
66.855 8.041449
66.860 7.73046
66.865 7.559908
66.870 7.328543
66.875 7.087126
66.880 6.825602
66.885 7.177885
66.890 7.315168
66.895 7.170702
66.900 6.862645
66.905 7.153623
66.910 7.948908
66.915 8.49833
66.920 8.203325
66.925 8.096951
66.930 8.596148
66.935 9.068801
66.940 8.741829
66.945 8.467756
66.950 8.110189
66.955 8.319642
66.960 8.395071
66.965 8.247949
66.970 8.46267
66.975 8.536713
66.980 8.269865
66.985 8.131699
66.990 7.847148
66.995 7.971715
67.000 7.956302
67.005 7.962729
67.010 8.004792
67.015 8.13541
67.020 8.513503
67.025 8.301899
67.030 8.055077
67.035 8.160571
67.040 8.13625
67.045 8.016046
67.050 8.06114
67.055 8.27017
67.060 8.322354
67.065 8.447968
67.070 8.549693
67.075 8.201492
67.080 8.096478
67.085 8.327629
67.090 8.513958
67.095 8.911312
67.100 8.754264
67.105 8.559576
67.110 9.097317
67.115 9.141212
67.120 9.299603
67.125 9.00613
67.130 8.799018
67.135 8.964126
67.140 8.631228
67.145 8.164285
67.150 8.050878
67.155 7.819022
67.160 7.777809
67.165 7.977468
67.170 7.845526
67.175 8.176762
67.180 8.44079
67.185 8.34468
67.190 8.070994
67.195 8.223094
67.200 7.873278
67.205 7.609179
67.210 7.409233
67.215 7.405402
67.220 7.683621
67.225 8.140641
67.230 8.091105
67.235 8.214615
67.240 8.189982
67.245 8.210946
67.250 8.081893
67.255 7.819579
67.260 7.295495
67.265 7.289544
67.270 7.658086
67.275 8.145399
67.280 8.543399
67.285 8.917623
67.290 9.140972
67.295 9.190073
67.300 9.137521
67.305 8.755556
67.310 8.356986
67.315 8.133256
67.320 8.001277
67.325 7.705687
67.330 8.019361
67.335 8.067967
67.340 8.156174
67.345 8.366499
67.350 7.898631
67.355 7.481044
67.360 7.666873
67.365 7.473069
67.370 7.253431
67.375 7.099037
67.380 6.75616
67.385 7.179179
67.390 7.629489
67.395 7.48732
67.400 7.385342
67.405 7.389782
67.410 7.611247
67.415 7.432281
67.420 7.34341
67.425 7.12797
67.430 7.385779
67.435 7.394413
67.440 7.590481
67.445 7.520795
67.450 7.963849
67.455 8.073232
67.460 8.24644
67.465 8.193334
67.470 8.365903
67.475 8.353653
67.480 8.499229
67.485 8.795945
67.490 8.718897
67.495 8.518189
67.500 8.38701
67.505 8.201716
67.510 8.301939
67.515 8.430659
67.520 8.352223
67.525 8.465663
67.530 8.925176
67.535 9.159961
67.540 9.08131
67.545 8.920897
67.550 8.570307
67.555 8.2564
67.560 7.804435
67.565 7.871926
67.570 7.899414
67.575 7.953056
67.580 8.227891
67.585 8.333223
67.590 8.415638
67.595 8.46937
67.600 8.217758
67.605 8.151524
67.610 8.340365
67.615 8.178269
67.620 8.441428
67.625 8.656651
67.630 8.68768
67.635 8.495033
67.640 8.457178
67.645 8.268107
67.650 8.194692
67.655 8.538737
67.660 8.802533
67.665 8.940701
67.670 9.081605
67.675 8.952153
67.680 9.017753
67.685 8.930599
67.690 7.962655
67.695 7.811195
67.700 8.050349
67.705 8.175945
67.710 7.985877
67.715 8.073733
67.720 7.977232
67.725 8.379632
67.730 8.192083
67.735 7.681199
67.740 7.613937
67.745 7.423818
67.750 7.430557
67.755 7.87199
67.760 7.665528
67.765 7.807364
67.770 8.188309
67.775 8.358307
67.780 8.878072
67.785 8.990565
67.790 8.797917
67.795 8.672773
67.800 8.572075
67.805 8.394495
67.810 8.702116
67.815 8.73615
67.820 8.775816
67.825 8.827753
67.830 8.824675
67.835 8.52632
67.840 8.644261
67.845 8.780688
67.850 8.77818
67.855 8.516694
67.860 8.743086
67.865 9.33335
67.870 9.703209
67.875 9.61352
67.880 9.398563
67.885 9.084328
67.890 9.111703
67.895 8.740129
67.900 8.423615
67.905 8.433101
67.910 8.56437
67.915 8.746881
67.920 8.734393
67.925 8.540755
67.930 8.654674
67.935 8.629319
67.940 8.412491
67.945 7.991981
67.950 7.651908
67.955 7.341407
67.960 7.566236
67.965 7.767013
67.970 8.04492
67.975 8.309806
67.980 8.457429
67.985 8.634632
67.990 9.046054
67.995 8.965347
68.000 8.75472
68.005 8.696269
68.010 8.786804
68.015 8.990726
68.020 8.848182
68.025 8.800199
68.030 8.894579
68.035 9.524086
68.040 9.457306
68.045 9.230923
68.050 9.131664
68.055 9.115911
68.060 9.015324
68.065 8.867439
68.070 8.594161
68.075 8.616404
68.080 8.358767
68.085 8.684231
68.090 8.871534
68.095 8.859172
68.100 8.713403
68.105 8.339069
68.110 8.650158
68.115 8.831796
68.120 8.266667
68.125 8.47615
68.130 8.371234
68.135 8.599591
68.140 8.243582
68.145 7.869142
68.150 7.705909
68.155 7.457263
68.160 7.180386
68.165 7.296469
68.170 7.558625
68.175 8.432474
68.180 8.595421
68.185 8.713527
68.190 8.852252
68.195 8.760477
68.200 8.586777
68.205 8.221176
68.210 7.512631
68.215 7.336592
68.220 7.666614
68.225 8.074366
68.230 8.21848
68.235 8.158762
68.240 8.35019
68.245 8.756348
68.250 8.269599
68.255 8.081496
68.260 8.297112
68.265 8.26931
68.270 8.433897
68.275 8.472978
68.280 8.598321
68.285 9.044752
68.290 9.053369
68.295 8.600385
68.300 8.601846
68.305 8.37566
68.310 7.863726
68.315 7.530115
68.320 7.429861
68.325 7.181444
68.330 7.321166
68.335 7.353479
68.340 7.848005
68.345 8.186724
68.350 8.10068
68.355 7.960012
68.360 8.032106
68.365 8.215433
68.370 8.443119
68.375 8.140748
68.380 7.820316
68.385 7.735963
68.390 8.166403
68.395 8.047889
68.400 7.844189
68.405 7.387982
68.410 7.298292
68.415 7.459267
68.420 7.84
68.425 7.494037
68.430 7.226816
68.435 7.060317
68.440 7.251638
68.445 7.383152
68.450 7.314373
68.455 7.394446
68.460 7.610134
68.465 8.066333
68.470 8.156795
68.475 8.110743
68.480 8.109941
68.485 8.190107
68.490 8.317038
68.495 8.398078
68.500 8.248194
68.505 7.971516
68.510 8.093143
68.515 8.083115
68.520 7.875441
68.525 7.676548
68.530 7.827754
68.535 8.077038
68.540 8.526403
68.545 8.501065
68.550 8.857616
68.555 9.378233
68.560 9.823489
68.565 9.390162
68.570 9.243106
68.575 9.139704
68.580 9.349973
68.585 9.176826
68.590 8.97567
68.595 8.739965
68.600 9.278256
68.605 9.368141
68.610 9.216004
68.615 9.356453
68.620 9.48317
68.625 9.804975
68.630 9.576902
68.635 9.161527
68.640 9.152619
68.645 9.064497
68.650 8.792842
68.655 8.786077
68.660 8.335868
68.665 8.674713
68.670 8.482428
68.675 8.578705
68.680 8.617885
68.685 8.485642
68.690 8.20627
68.695 8.109737
68.700 7.984061
68.705 8.004616
68.710 8.217275
68.715 8.459665
68.720 8.72538
68.725 9.084277
68.730 9.596668
68.735 9.680202
68.740 9.698282
68.745 9.895356
68.750 9.801786
68.755 9.882967
68.760 9.528688
68.765 9.482632
68.770 9.901382
68.775 10.488798
68.780 10.253847
68.785 9.922072
68.790 9.73233
68.795 9.689249
68.800 9.348906
68.805 8.554193
68.810 7.9546
68.815 7.755738
68.820 7.958825
68.825 8.288771
68.830 8.070594
68.835 8.724324
68.840 9.282871
68.845 9.258846
68.850 9.623899
68.855 9.661117
68.860 10.171213
68.865 11.313643
68.870 11.423505
68.875 11.283613
68.880 11.502718
68.885 11.511968
68.890 11.815402
68.895 11.491797
68.900 10.844954
68.905 10.321306
68.910 10.287529
68.915 10.074159
68.920 9.704049
68.925 9.385238
68.930 8.80364
68.935 8.274474
68.940 8.411436
68.945 8.377016
68.950 8.313985
68.955 8.481132
68.960 8.411638
68.965 9.056304
68.970 9.62256
68.975 9.61936
68.980 9.790177
68.985 9.746826
68.990 10.062298
68.995 10.263555
69.000 10.119213
69.005 10.139414
69.010 10.807807
69.015 10.97235
69.020 11.060691
69.025 11.295186
69.030 11.74584
69.035 11.506387
69.040 11.288836
69.045 10.599402
69.050 10.088713
69.055 9.981894
69.060 9.609894
69.065 9.239253
69.070 9.189592
69.075 9.197777
69.080 9.301288
69.085 9.695475
69.090 9.882304
69.095 9.630062
69.100 9.395029
69.105 9.454479
69.110 9.579907
69.115 9.807778
69.120 9.569859
69.125 9.234225
69.130 9.205392
69.135 9.290548
69.140 9.432251
69.145 9.423267
69.150 9.056225
69.155 9.336438
69.160 9.499418
69.165 8.975927
69.170 8.82102
69.175 8.303122
69.180 8.027297
69.185 8.03903
69.190 8.104093
69.195 7.775063
69.200 8.147253
69.205 8.497654
69.210 8.842612
69.215 9.249534
69.220 9.297632
69.225 9.464046
69.230 10.244145
69.235 10.11264
69.240 9.666818
69.245 9.450012
69.250 9.402987
69.255 9.576828
69.260 9.341957
69.265 9.026584
69.270 9.06247
69.275 9.398313
69.280 9.475558
69.285 8.998086
69.290 8.883056
69.295 8.812652
69.300 8.743753
69.305 8.614959
69.310 8.695233
69.315 8.666256
69.320 8.723463
69.325 8.414783
69.330 8.427112
69.335 8.484674
69.340 8.530622
69.345 7.884615
69.350 7.957173
69.355 8.060206
69.360 8.168522
69.365 7.94814
69.370 7.940332
69.375 8.092619
69.380 7.978452
69.385 7.808055
69.390 8.065929
69.395 8.454185
69.400 8.742887
69.405 8.402349
69.410 8.206008
69.415 8.799516
69.420 8.971828
69.425 8.677575
69.430 8.396625
69.435 8.023032
69.440 8.305358
69.445 8.53136
69.450 8.717697
69.455 8.699591
69.460 8.770247
69.465 8.533567
69.470 8.480031
69.475 8.327538
69.480 8.151464
69.485 8.349934
69.490 8.402534
69.495 8.286348
69.500 8.793425
69.505 9.220864
69.510 9.332806
69.515 9.27103
69.520 8.79891
69.525 8.577177
69.530 8.697085
69.535 9.033058
69.540 8.898869
69.545 9.213764
69.550 8.995443
69.555 9.164026
69.560 9.305807
69.565 8.804169
69.570 8.264676
69.575 8.612175
69.580 8.369431
69.585 8.441463
69.590 8.329348
69.595 8.164285
69.600 8.291899
69.605 7.855558
69.610 7.478143
69.615 7.66974
69.620 7.630859
69.625 7.26956
69.630 7.802256
69.635 7.787101
69.640 7.941072
69.645 7.935031
69.650 7.620413
69.655 8.262113
69.660 8.128832
69.665 7.942504
69.670 8.182554
69.675 8.531617
69.680 8.957458
69.685 8.995059
69.690 8.850238
69.695 9.225227
69.700 9.059523
69.705 8.957744
69.710 8.622695
69.715 8.272774
69.720 8.370622
69.725 7.992524
69.730 7.817209
69.735 7.80402
69.740 8.084525
69.745 8.195868
69.750 8.159518
69.755 8.255818
69.760 8.449332
69.765 8.369867
69.770 8.226851
69.775 8.01958
69.780 7.920505
69.785 8.162992
69.790 7.821832
69.795 7.635325
69.800 7.774352
69.805 7.563009
69.810 7.458902
69.815 7.242013
69.820 7.140392
69.825 7.65164
69.830 8.47301
69.835 8.878376
69.840 9.023612
69.845 9.03771
69.850 9.118081
69.855 9.087925
69.860 8.395185
69.865 7.701313
69.870 7.590539
69.875 7.683475
69.880 7.694175
69.885 7.87647
69.890 8.00214
69.895 8.308931
69.900 8.146944
69.905 8.056161
69.910 7.772967
69.915 7.917547
69.920 7.587899
69.925 7.277391
69.930 7.138783
69.935 7.161232
69.940 7.492966
69.945 7.521896
69.950 7.580204
69.955 7.550209
69.960 7.54144
69.965 7.502578
69.970 7.457432
69.975 7.266197
69.980 7.176778
69.985 7.180121
69.990 7.160368
69.995 7.304777
70.000 7.509813
70.005 7.618826
70.010 7.799065
70.015 8.138454
70.020 8.050009
70.025 8.205212
70.030 8.530653
70.035 8.935788
70.040 8.706001
70.045 8.440951
70.050 8.602029
70.055 8.552614
70.060 8.605476
70.065 8.00855
70.070 7.595426
70.075 7.397873
70.080 7.423926
70.085 7.181767
70.090 7.423393
70.095 7.552568
70.100 7.96348
70.105 8.265749
70.110 8.327744
70.115 8.533509
70.120 8.724302
70.125 8.676894
70.130 8.545856
70.135 7.946971
70.140 8.076275
70.145 8.18193
70.150 7.921662
70.155 8.083803
70.160 7.794968
70.165 8.000613
70.170 8.078321
70.175 8.218811
70.180 8.500414
70.185 8.649034
70.190 8.681844
70.195 8.736509
70.200 8.85568
70.205 9.052273
70.210 8.777802
70.215 8.343416
70.220 8.404939
70.225 8.528074
70.230 8.705322
70.235 8.638628
70.240 8.353906
70.245 8.196635
70.250 8.362954
70.255 8.27082
70.260 7.989024
70.265 7.881958
70.270 8.053386
70.275 8.530269
70.280 8.857146
70.285 8.816218
70.290 8.87216
70.295 8.921048
70.300 9.107891
70.305 8.865666
70.310 8.597141
70.315 8.542354
70.320 8.486088
70.325 8.285933
70.330 8.080967
70.335 8.02109
70.340 8.708755
70.345 8.85721
70.350 9.124949
70.355 9.256711
70.360 9.410109
70.365 9.604578
70.370 9.042438
70.375 8.321679
70.380 8.253254
70.385 8.188631
70.390 8.434178
70.395 8.856245
70.400 9.163036
70.405 9.606356
70.410 10.149661
70.415 10.262345
70.420 10.253636
70.425 9.992535
70.430 9.736984
70.435 9.651772
70.440 9.539401
70.445 9.59018
70.450 9.123769
70.455 8.836732
70.460 8.929951
70.465 8.849113
70.470 8.437376
70.475 8.302058
70.480 7.752574
70.485 7.829497
70.490 7.865315
70.495 7.477179
70.500 7.772292
70.505 7.503338
70.510 7.076467
70.515 7.329626
70.520 7.471197
70.525 7.464716
70.530 7.788118
70.535 7.660499
70.540 8.323252
70.545 9.054191
70.550 9.172791
70.555 9.066169
70.560 8.859318
70.565 8.885553
70.570 9.141232
70.575 8.838763
70.580 8.766171
70.585 8.890015
70.590 9.147725
70.595 9.427378
70.600 9.190742
70.605 9.14985
70.610 9.195407
70.615 8.453179
70.620 8.602543
70.625 8.556131
70.630 8.223565
70.635 8.240743
70.640 8.168615
70.645 8.297474
70.650 8.986478
70.655 8.485096
70.660 8.293425
70.665 8.473016
70.670 8.165955
70.675 8.510492
70.680 8.110762
70.685 8.102184
70.690 8.252756
70.695 8.166856
70.700 7.919932
70.705 7.878175
70.710 7.742071
70.715 7.802332
70.720 7.789268
70.725 7.81011
70.730 8.119715
70.735 8.20313
70.740 8.215828
70.745 8.346082
70.750 8.239759
70.755 7.740651
70.760 7.792593
70.765 8.239428
70.770 8.423779
70.775 8.239465
70.780 8.37711
70.785 8.756015
70.790 9.233881
70.795 8.83552
70.800 8.412824
70.805 8.639273
70.810 8.831571
70.815 8.304484
70.820 7.685463
70.825 7.186473
70.830 7.298409
70.835 7.390869
70.840 6.803997
70.845 6.854663
70.850 7.312948
70.855 7.5998
70.860 7.843291
70.865 8.075318
70.870 7.989169
70.875 7.828607
70.880 7.708095
70.885 7.653526
70.890 7.940793
70.895 7.868394
70.900 7.697792
70.905 8.130211
70.910 8.589046
70.915 8.657238
70.920 8.602264
70.925 8.389676
70.930 8.274214
70.935 8.009391
70.940 7.660892
70.945 7.242489
70.950 7.334096
70.955 7.098806
70.960 7.228691
70.965 7.315024
70.970 7.702758
70.975 8.17909
70.980 8.405297
70.985 8.712503
70.990 8.880835
70.995 8.981901
71.000 8.72134
71.005 8.652025
71.010 8.174785
71.015 7.803049
71.020 7.705127
71.025 7.60473
71.030 7.644818
71.035 7.924015
71.040 7.890301
71.045 8.366801
71.050 8.335944
71.055 8.014288
71.060 8.342391
71.065 8.507065
71.070 8.169706
71.075 7.899857
71.080 7.790987
71.085 7.788417
71.090 7.547084
71.095 7.229958
71.100 7.139727
71.105 7.117473
71.110 7.031891
71.115 6.99404
71.120 7.092719
71.125 7.715456
71.130 8.070841
71.135 8.154916
71.140 8.49522
71.145 8.761649
71.150 8.996217
71.155 9.017942
71.160 8.836448
71.165 8.60208
71.170 8.371987
71.175 8.270844
71.180 7.974932
71.185 7.804619
71.190 7.486783
71.195 7.595944
71.200 7.748627
71.205 7.678317
71.210 7.933182
71.215 7.970523
71.220 8.073583
71.225 8.49062
71.230 8.365653
71.235 8.293868
71.240 8.55772
71.245 8.627928
71.250 8.815228
71.255 8.882213
71.260 8.302195
71.265 8.62989
71.270 9.179832
71.275 9.059275
71.280 8.946734
71.285 9.477622
71.290 9.812869
71.295 9.819484
71.300 9.631294
71.305 9.426766
71.310 9.332464
71.315 9.150162
71.320 8.151569
71.325 7.842947
71.330 7.200788
71.335 6.841911
71.340 6.651347
71.345 6.736974
71.350 7.003514
71.355 7.729064
71.360 7.770202
71.365 8.370105
71.370 8.219646
71.375 7.993324
71.380 8.068954
71.385 7.696292
71.390 7.260696
71.395 7.191678
71.400 7.159997
71.405 7.442358
71.410 7.734211
71.415 7.966148
71.420 8.092144
71.425 8.379209
71.430 8.778393
71.435 9.003075
71.440 9.071353
71.445 8.872818
71.450 8.885106
71.455 8.65888
71.460 8.579356
71.465 8.080741
71.470 7.724681
71.475 7.757675
71.480 7.703012
71.485 7.278408
71.490 7.227651
71.495 7.317442
71.500 7.37394
71.505 7.375137
71.510 7.302441
71.515 7.348859
71.520 7.518498
71.525 7.375592
71.530 7.302858
71.535 7.832199
71.540 7.675483
71.545 7.605691
71.550 7.526402
71.555 7.598049
71.560 7.637658
71.565 7.573422
71.570 7.621616
71.575 7.595365
71.580 7.658146
71.585 7.391067
71.590 7.476897
71.595 7.858587
71.600 7.932525
71.605 7.438584
71.610 8.235146
71.615 8.276576
71.620 8.691936
71.625 8.39009
71.630 7.808535
71.635 7.654734
71.640 7.308388
71.645 6.499865
71.650 6.021739
71.655 5.813539
71.660 5.797603
71.665 5.935118
71.670 6.06611
71.675 6.379086
71.680 6.572813
71.685 7.134775
71.690 7.435957
71.695 7.551043
71.700 7.815212
71.705 7.719247
71.710 7.582013
71.715 7.668018
71.720 7.53585
71.725 8.016786
71.730 8.205481
71.735 8.559339
71.740 9.243513
71.745 9.507992
71.750 9.558235
71.755 9.408337
71.760 9.296233
71.765 9.302771
71.770 8.760104
71.775 8.692618
71.780 8.605447
71.785 8.683543
71.790 8.612981
71.795 8.070546
71.800 8.000715
71.805 8.111083
71.810 8.133627
71.815 8.073313
71.820 7.65402
71.825 7.554073
71.830 7.41951
71.835 7.074949
71.840 7.145237
71.845 7.030717
71.850 7.23035
71.855 7.297945
71.860 7.849394
71.865 8.354044
71.870 8.733408
71.875 8.293591
71.880 8.401941
71.885 8.230245
71.890 8.185632
71.895 7.886911
71.900 7.754378
71.905 7.830303
71.910 8.432427
71.915 8.256105
71.920 8.178536
71.925 7.96767
71.930 7.989689
71.935 7.436357
71.940 7.12869
71.945 6.706872
71.950 6.638234
71.955 6.943932
71.960 7.092892
71.965 7.245242
71.970 7.590257
71.975 7.579781
71.980 8.080869
71.985 8.741475
71.990 8.574447
71.995 8.915193
72.000 9.150615
72.005 9.381417
72.010 9.229306
72.015 8.913346
72.020 9.228697
72.025 9.346589
72.030 8.962957
72.035 9.018173
72.040 8.802919
72.045 8.9266
72.050 8.777078
72.055 8.114488
72.060 8.091443
72.065 7.922322
72.070 7.943019
72.075 8.16328
72.080 8.29354
72.085 7.671984
72.090 7.894952
72.095 7.8982
72.100 7.667367
72.105 7.245353
72.110 6.919824
72.115 6.913708
72.120 7.447348
72.125 7.386036
72.130 7.685159
72.135 7.848581
72.140 8.383023
72.145 8.575874
72.150 8.660333
72.155 8.38613
72.160 8.228102
72.165 8.014299
72.170 7.974782
72.175 7.66091
72.180 7.368252
72.185 7.150982
72.190 7.73884
72.195 7.507905
72.200 7.559718
72.205 7.704651
72.210 7.528419
72.215 7.279995
72.220 7.072661
72.225 7.209978
72.230 7.417139
72.235 7.478288
72.240 8.026827
72.245 8.651443
72.250 9.163124
72.255 9.148676
72.260 9.011456
72.265 8.788578
72.270 8.535878
72.275 8.283042
72.280 8.047761
72.285 8.538024
72.290 8.51102
72.295 8.311169
72.300 8.43612
72.305 8.256699
72.310 8.583363
72.315 9.020527
72.320 8.530795
72.325 8.936377
72.330 9.516294
72.335 9.41958
72.340 9.462406
72.345 8.987962
72.350 8.795736
72.355 9.282684
72.360 9.198233
72.365 9.072672
72.370 9.257345
72.375 9.533904
72.380 9.496459
72.385 9.328277
72.390 8.837143
72.395 8.621549
72.400 8.38094
72.405 8.452883
72.410 8.158989
72.415 8.008199
72.420 8.298526
72.425 8.264953
72.430 8.121021
72.435 8.190215
72.440 8.234957
72.445 8.21615
72.450 8.086676
72.455 7.668026
72.460 7.705673
72.465 7.590647
72.470 7.150002
72.475 6.805196
72.480 6.771749
72.485 6.519106
72.490 6.298754
72.495 6.549635
72.500 7.025063
72.505 7.394982
72.510 8.006199
72.515 8.209062
72.520 9.184022
72.525 9.424873
72.530 9.27598
72.535 8.940811
72.540 8.673952
72.545 8.215482
72.550 8.555929
72.555 8.508369
72.560 8.450961
72.565 8.104826
72.570 8.260186
72.575 8.46238
72.580 8.569371
72.585 7.972383
72.590 8.020231
72.595 8.230425
72.600 8.535501
72.605 8.452082
72.610 8.441079
72.615 8.559503
72.620 8.704937
72.625 8.499192
72.630 8.774012
72.635 9.036751
72.640 9.003283
72.645 8.736945
72.650 8.346317
72.655 8.087274
72.660 8.087014
72.665 7.609183
72.670 7.461442
72.675 7.433479
72.680 7.810112
72.685 8.195311
72.690 8.189966
72.695 8.291985
72.700 8.057986
72.705 7.975176
72.710 8.208937
72.715 8.593105
72.720 8.581058
72.725 8.402799
72.730 8.130658
72.735 8.105621
72.740 8.181638
72.745 7.780344
72.750 7.337824
72.755 7.168527
72.760 7.00325
72.765 7.165323
72.770 7.311766
72.775 7.132261
72.780 7.064665
72.785 6.900455
72.790 7.102317
72.795 6.93231
72.800 6.92667
72.805 7.111096
72.810 7.488801
72.815 7.437271
72.820 7.536715
72.825 7.964173
72.830 7.891405
72.835 8.012746
72.840 7.88284
72.845 7.454937
72.850 7.446267
72.855 7.214103
72.860 7.040242
72.865 7.23387
72.870 6.86095
72.875 6.625757
72.880 6.815575
72.885 6.839988
72.890 6.647584
72.895 6.870963
72.900 6.969652
72.905 7.191247
72.910 7.724573
72.915 7.887544
72.920 8.122966
72.925 8.207434
72.930 7.830236
72.935 7.70731
72.940 7.453843
72.945 7.456484
72.950 7.578138
72.955 7.503105
72.960 7.21141
72.965 7.80754
72.970 7.73616
72.975 7.501147
72.980 7.386246
72.985 7.367297
72.990 7.529935
72.995 7.515005
73.000 7.320261
