!@!!GADDS PLOTSO FILE: Chi integration type
!@!!Title/SampleName: map-182
!@!!Comment: ?
!@!!User: Bruker Instrument Administrator
!@!!Site: University of Illinois Chicago
!@!!Frame: map-182_01_000.gfrm
!@!!Wavelengths    1.54184   1.54056   1.54439
!@!!Frame angles: 2Theta: 63.000 Omega: 50.000 Phi: 0.000 Chi: 90.000
!@!!Integration range: 2Theta: 53.000 to 73.000  Gamma: -105.000 to -75.000
!@!!Integration method: bin normalized
!@!N
!@!SS
!@!M
!@!L 0.0 0.0 0.0 0.0
!@!XDegrees
!@!YCounts
53.000 8.033829
53.005 8.229805
53.010 8.748953
53.015 9.103942
53.020 8.856477
53.025 9.379475
53.030 9.253604
53.035 9.43002
53.040 9.273705
53.045 8.597192
53.050 8.290501
53.055 8.152308
53.060 7.834884
53.065 7.669889
53.070 7.43448
53.075 7.727612
53.080 8.227734
53.085 8.779234
53.090 8.839307
53.095 9.020848
53.100 9.294887
53.105 9.497206
53.110 9.846121
53.115 9.34744
53.120 9.195112
53.125 9.279911
53.130 8.993236
53.135 8.966152
53.140 8.27769
53.145 8.213364
53.150 8.043306
53.155 8.122203
53.160 8.325131
53.165 7.880537
53.170 8.096929
53.175 8.257256
53.180 8.410695
53.185 8.803552
53.190 8.747087
53.195 8.776212
53.200 9.010858
53.205 9.070112
53.210 9.184524
53.215 9.184422
53.220 9.128022
53.225 9.130289
53.230 9.319534
53.235 9.034337
53.240 8.540196
53.245 8.306248
53.250 8.55163
53.255 8.677222
53.260 8.448013
53.265 8.168161
53.270 8.286618
53.275 8.364612
53.280 8.380233
53.285 8.22179
53.290 8.090536
53.295 8.207741
53.300 8.490499
53.305 8.696247
53.310 8.876692
53.315 8.682663
53.320 8.242062
53.325 8.388979
53.330 8.470639
53.335 8.556273
53.340 8.36492
53.345 8.097141
53.350 8.338111
53.355 8.607871
53.360 8.609932
53.365 8.823361
53.370 9.319428
53.375 9.609174
53.380 9.978422
53.385 10.705104
53.390 10.638739
53.395 10.381876
53.400 9.993353
53.405 9.523459
53.410 9.279374
53.415 8.801354
53.420 8.485404
53.425 8.692163
53.430 8.864851
53.435 8.832549
53.440 9.151423
53.445 9.352252
53.450 9.676261
53.455 9.668611
53.460 9.59734
53.465 9.384747
53.470 9.030006
53.475 8.561937
53.480 8.294986
53.485 7.943168
53.490 7.634185
53.495 7.999356
53.500 7.945957
53.505 8.608349
53.510 9.32468
53.515 9.468825
53.520 9.62718
53.525 9.716317
53.530 9.536929
53.535 9.730988
53.540 9.271736
53.545 8.825393
53.550 8.568282
53.555 8.445009
53.560 8.360664
53.565 8.338476
53.570 8.428309
53.575 8.540772
53.580 8.654929
53.585 8.847226
53.590 8.551126
53.595 8.416822
53.600 8.429891
53.605 8.336455
53.610 8.589124
53.615 9.124332
53.620 9.420608
53.625 9.944849
53.630 10.002878
53.635 9.733854
53.640 10.198445
53.645 9.790848
53.650 9.363555
53.655 9.400891
53.660 9.558147
53.665 9.971085
53.670 10.066401
53.675 10.000745
53.680 10.329465
53.685 10.753277
53.690 10.969722
53.695 10.858881
53.700 10.519592
53.705 10.465447
53.710 10.311156
53.715 9.996833
53.720 9.042245
53.725 8.140795
53.730 8.472666
53.735 8.616466
53.740 8.361764
53.745 8.34007
53.750 8.307406
53.755 9.141848
53.760 9.130273
53.765 8.796852
53.770 8.903419
53.775 9.343089
53.780 9.625037
53.785 9.836466
53.790 10.007383
53.795 10.649324
53.800 10.568086
53.805 10.836782
53.810 10.792113
53.815 10.532274
53.820 10.353015
53.825 10.091084
53.830 9.909207
53.835 9.927526
53.840 9.388243
53.845 9.295441
53.850 9.310843
53.855 8.84961
53.860 8.265256
53.865 7.956921
53.870 7.699888
53.875 8.075426
53.880 8.118864
53.885 8.742007
53.890 9.84869
53.895 10.44386
53.900 10.429894
53.905 10.294088
53.910 10.224793
53.915 10.180464
53.920 9.664264
53.925 9.312941
53.930 9.215515
53.935 9.492682
53.940 10.041063
53.945 10.198312
53.950 10.060141
53.955 10.033434
53.960 9.937429
53.965 10.052834
53.970 9.813549
53.975 9.347359
53.980 9.050799
53.985 8.851378
53.990 8.541524
53.995 8.010511
54.000 7.916848
54.005 7.936294
54.010 8.410143
54.015 8.956432
54.020 9.232704
54.025 9.34749
54.030 9.995672
54.035 10.684729
54.040 11.004181
54.045 10.190562
54.050 9.442652
54.055 9.337291
54.060 9.264096
54.065 8.745244
54.070 8.366043
54.075 8.278895
54.080 8.746991
54.085 9.116069
54.090 8.983204
54.095 9.374252
54.100 9.535711
54.105 9.557826
54.110 9.483199
54.115 9.265429
54.120 9.459867
54.125 9.579007
54.130 9.272276
54.135 9.025519
54.140 8.647405
54.145 8.287671
54.150 8.391833
54.155 8.302516
54.160 8.433577
54.165 8.763651
54.170 9.074916
54.175 9.470588
54.180 9.737947
54.185 9.588907
54.190 9.140705
54.195 8.645852
54.200 7.828944
54.205 7.5053
54.210 7.355801
54.215 7.134358
54.220 7.029962
54.225 7.706737
54.230 7.983062
54.235 8.502321
54.240 8.737683
54.245 8.919592
54.250 9.345071
54.255 9.619302
54.260 9.740639
54.265 10.513903
54.270 10.163738
54.275 9.949073
54.280 9.755116
54.285 9.92673
54.290 9.738479
54.295 9.308999
54.300 8.84999
54.305 8.91083
54.310 8.822004
54.315 8.864596
54.320 8.525098
54.325 8.668286
54.330 8.797515
54.335 8.993321
54.340 9.075563
54.345 9.223397
54.350 9.214298
54.355 9.322518
54.360 9.302378
54.365 9.216718
54.370 9.224809
54.375 8.899886
54.380 8.499586
54.385 8.216885
54.390 8.326757
54.395 8.368596
54.400 8.178544
54.405 8.611127
54.410 9.424289
54.415 9.856756
54.420 9.97172
54.425 10.018269
54.430 9.835459
54.435 9.654856
54.440 8.75499
54.445 8.265018
54.450 8.116024
54.455 8.291762
54.460 8.384132
54.465 8.71551
54.470 9.145984
54.475 9.673185
54.480 9.608587
54.485 9.524365
54.490 9.1022
54.495 8.760968
54.500 8.087081
54.505 7.616405
54.510 7.857453
54.515 8.065974
54.520 8.834576
54.525 8.94899
54.530 9.189676
54.535 9.922215
54.540 10.44103
54.545 10.226663
54.550 10.209661
54.555 10.045851
54.560 9.795638
54.565 9.745739
54.570 9.513849
54.575 9.288668
54.580 9.318155
54.585 9.209831
54.590 9.147672
54.595 9.357914
54.600 9.466279
54.605 9.23886
54.610 8.975855
54.615 8.597941
54.620 8.446437
54.625 8.283441
54.630 8.350593
54.635 8.10611
54.640 8.356079
54.645 8.753434
54.650 8.818288
54.655 9.069436
54.660 8.998798
54.665 9.31854
54.670 9.545659
54.675 8.851437
54.680 8.534183
54.685 8.835359
54.690 8.812716
54.695 9.249226
54.700 9.087427
54.705 9.198915
54.710 9.675967
54.715 9.759842
54.720 9.496652
54.725 9.262353
54.730 8.621509
54.735 8.283096
54.740 8.302907
54.745 8.434345
54.750 8.690548
54.755 8.410493
54.760 8.476696
54.765 8.837811
54.770 9.007874
54.775 9.194417
54.780 9.27023
54.785 9.126343
54.790 9.747074
54.795 9.630739
54.800 9.852655
54.805 9.978674
54.810 9.509647
54.815 9.942088
54.820 10.100359
54.825 10.266014
54.830 10.213208
54.835 9.908591
54.840 9.808336
54.845 10.000666
54.850 9.732742
54.855 9.374918
54.860 9.079638
54.865 9.357449
54.870 9.765564
54.875 9.887694
54.880 9.644817
54.885 9.260106
54.890 9.567992
54.895 10.05517
54.900 10.196233
54.905 9.877718
54.910 9.796813
54.915 9.690073
54.920 9.815814
54.925 9.364994
54.930 9.472328
54.935 9.292964
54.940 9.109735
54.945 9.309187
54.950 10.133738
54.955 10.556281
54.960 10.773342
54.965 10.548308
54.970 11.015492
54.975 11.693682
54.980 11.570662
54.985 11.326668
54.990 11.336891
54.995 11.071326
55.000 10.893207
55.005 11.064793
55.010 10.999286
55.015 11.016834
55.020 10.530695
55.025 10.214503
55.030 10.492578
55.035 10.33678
55.040 9.983332
55.045 9.810174
55.050 9.415271
55.055 9.494683
55.060 9.675591
55.065 9.523817
55.070 9.997752
55.075 10.292168
55.080 10.286713
55.085 10.588572
55.090 10.954697
55.095 11.003839
55.100 10.792762
55.105 10.258347
55.110 9.607537
55.115 9.819294
55.120 9.784619
55.125 9.325845
55.130 9.288452
55.135 9.37606
55.140 9.693293
55.145 9.898085
55.150 9.60755
55.155 9.330416
55.160 9.23125
55.165 9.228008
55.170 9.271838
55.175 9.343549
55.180 9.168298
55.185 9.562456
55.190 10.333487
55.195 10.293002
55.200 9.741425
55.205 9.597945
55.210 9.896955
55.215 10.596498
55.220 10.586889
55.225 10.24647
55.230 10.422931
55.235 10.551158
55.240 10.350824
55.245 9.954033
55.250 9.231347
55.255 8.750641
55.260 8.729391
55.265 9.285348
55.270 9.508162
55.275 9.226213
55.280 8.844271
55.285 9.322167
55.290 9.895868
55.295 9.918365
55.300 9.418449
55.305 9.59178
55.310 10.248248
55.315 10.582436
55.320 10.600493
55.325 10.500396
55.330 10.133589
55.335 9.890121
55.340 9.916988
55.345 9.674477
55.350 9.546405
55.355 9.158485
55.360 8.835796
55.365 8.791306
55.370 8.601922
55.375 8.167045
55.380 7.844134
55.385 7.791008
55.390 8.027527
55.395 8.383459
55.400 8.654589
55.405 8.589813
55.410 8.768299
55.415 8.764569
55.420 8.576886
55.425 8.021453
55.430 7.945596
55.435 8.098854
55.440 8.589877
55.445 8.792139
55.450 9.080818
55.455 9.11429
55.460 9.688389
55.465 10.262532
55.470 10.858664
55.475 10.769581
55.480 10.508524
55.485 10.2237
55.490 10.494682
55.495 9.772524
55.500 9.229855
55.505 8.741931
55.510 8.661348
55.515 9.177254
55.520 9.16597
55.525 9.129824
55.530 9.401034
55.535 9.63247
55.540 9.677827
55.545 9.47376
55.550 9.177512
55.555 9.338916
55.560 9.346071
55.565 9.152904
55.570 8.594417
55.575 8.716821
55.580 9.066082
55.585 9.472613
55.590 9.81615
55.595 9.902245
55.600 10.125334
55.605 10.28458
55.610 10.917926
55.615 10.825694
55.620 10.669197
55.625 10.485419
55.630 10.349315
55.635 10.088498
55.640 9.85802
55.645 9.111523
55.650 8.975995
55.655 8.87886
55.660 8.727407
55.665 8.660686
55.670 8.681807
55.675 8.520907
55.680 8.479331
55.685 8.535323
55.690 8.590874
55.695 9.120536
55.700 8.95953
55.705 8.816093
55.710 8.843045
55.715 9.128285
55.720 9.278543
55.725 9.021621
55.730 8.640897
55.735 8.944853
55.740 9.202111
55.745 9.369122
55.750 9.365434
55.755 9.462405
55.760 9.451136
55.765 9.350672
55.770 9.160496
55.775 9.095021
55.780 9.265405
55.785 9.135221
55.790 8.459267
55.795 8.701485
55.800 8.831244
55.805 8.803451
55.810 8.554748
55.815 7.874592
55.820 8.270028
55.825 8.731281
55.830 8.780882
55.835 9.542185
55.840 10.054606
55.845 10.74197
55.850 11.48971
55.855 11.616575
55.860 11.81846
55.865 11.465929
55.870 10.746778
55.875 10.567552
55.880 10.464233
55.885 9.989439
55.890 9.908456
55.895 9.776753
55.900 9.84363
55.905 10.11328
55.910 9.832577
55.915 9.870209
55.920 9.811491
55.925 9.324503
55.930 9.740228
55.935 9.988364
55.940 10.060298
55.945 10.480745
55.950 10.730236
55.955 10.914005
55.960 10.902685
55.965 10.361654
55.970 9.654638
55.975 9.320769
55.980 8.911594
55.985 8.24716
55.990 8.373852
55.995 8.491008
56.000 8.503473
56.005 8.993073
56.010 9.513034
56.015 9.73634
56.020 9.700172
56.025 9.538564
56.030 9.651274
56.035 9.790526
56.040 9.568455
56.045 8.636998
56.050 8.202978
56.055 8.01855
56.060 7.695966
56.065 7.566338
56.070 7.811735
56.075 8.093583
56.080 8.17944
56.085 8.649465
56.090 9.191938
56.095 9.481608
56.100 9.365266
56.105 9.347315
56.110 9.253408
56.115 9.705356
56.120 9.594895
56.125 9.544918
56.130 9.722604
56.135 9.965757
56.140 9.98565
56.145 10.03336
56.150 9.671794
56.155 9.829515
56.160 9.982511
56.165 10.370589
56.170 10.533389
56.175 10.541617
56.180 10.818495
56.185 11.081544
56.190 11.045733
56.195 10.858652
56.200 10.58891
56.205 10.316908
56.210 10.24591
56.215 9.935438
56.220 9.778996
56.225 9.71267
56.230 9.667815
56.235 9.840175
56.240 9.919209
56.245 10.068196
56.250 10.354404
56.255 10.681319
56.260 10.516457
56.265 10.22798
56.270 9.967024
56.275 9.795429
56.280 9.429405
56.285 9.136168
56.290 9.048828
56.295 9.303405
56.300 9.599689
56.305 9.720504
56.310 9.695327
56.315 9.930947
56.320 10.091987
56.325 9.651427
56.330 9.543355
56.335 9.263351
56.340 8.81831
56.345 8.486737
56.350 8.576674
56.355 8.959835
56.360 9.362288
56.365 9.396961
56.370 9.467398
56.375 10.439251
56.380 10.859379
56.385 10.574982
56.390 10.547522
56.395 10.528217
56.400 10.704776
56.405 10.390063
56.410 9.921662
56.415 10.011459
56.420 10.031436
56.425 9.872115
56.430 10.123234
56.435 10.331422
56.440 10.772389
56.445 10.886292
56.450 10.884611
56.455 11.178955
56.460 10.948195
56.465 10.73019
56.470 10.537725
56.475 10.256361
56.480 10.361173
56.485 10.330313
56.490 10.477456
56.495 10.899232
56.500 11.368701
56.505 11.607746
56.510 12.02788
56.515 12.13683
56.520 12.609725
56.525 12.282616
56.530 12.18147
56.535 11.859394
56.540 11.870116
56.545 11.977679
56.550 12.356277
56.555 11.949719
56.560 12.269386
56.565 12.139878
56.570 12.168615
56.575 11.909183
56.580 11.427011
56.585 11.099361
56.590 10.942872
56.595 10.835819
56.600 11.168845
56.605 10.932511
56.610 11.076267
56.615 11.104573
56.620 11.202255
56.625 11.426205
56.630 11.475547
56.635 11.354613
56.640 11.710991
56.645 11.791221
56.650 11.540328
56.655 11.299614
56.660 11.36449
56.665 11.014338
56.670 11.030465
56.675 11.000298
56.680 11.002436
56.685 11.072618
56.690 10.770321
56.695 10.764159
56.700 10.64086
56.705 10.659831
56.710 10.641269
56.715 10.625597
56.720 10.830478
56.725 11.044426
56.730 10.658887
56.735 10.656533
56.740 9.968934
56.745 9.910691
56.750 10.118494
56.755 10.010438
56.760 10.227201
56.765 10.272083
56.770 10.580693
56.775 10.836014
56.780 10.644977
56.785 10.602257
56.790 10.401869
56.795 10.15449
56.800 10.056001
56.805 9.793295
56.810 9.698345
56.815 9.337461
56.820 8.842505
56.825 8.676545
56.830 8.669174
56.835 8.508192
56.840 8.539401
56.845 8.632749
56.850 8.729261
56.855 9.205164
56.860 9.474718
56.865 9.692615
56.870 9.781379
56.875 9.458485
56.880 9.57654
56.885 9.823175
56.890 9.990442
56.895 9.794968
56.900 10.067628
56.905 10.288113
56.910 10.397603
56.915 10.113662
56.920 9.658332
56.925 9.18094
56.930 9.049652
56.935 8.615344
56.940 8.77489
56.945 9.137787
56.950 9.429608
56.955 9.552867
56.960 9.64448
56.965 9.716246
56.970 9.751966
56.975 9.250535
56.980 8.762597
56.985 8.591087
56.990 8.559093
56.995 9.020565
57.000 9.119127
57.005 9.101932
57.010 9.022269
57.015 9.045156
57.020 9.174151
57.025 9.177425
57.030 8.768712
57.035 8.432799
57.040 8.196795
57.045 8.746392
57.050 9.183606
57.055 9.591275
57.060 9.551468
57.065 9.81339
57.070 10.37452
57.075 10.814386
57.080 10.338874
57.085 9.932597
57.090 9.325457
57.095 9.335704
57.100 9.184446
57.105 9.112698
57.110 9.278808
57.115 9.713904
57.120 9.913205
57.125 9.665308
57.130 9.563391
57.135 9.231466
57.140 8.753017
57.145 8.431053
57.150 8.316475
57.155 8.341537
57.160 8.865565
57.165 8.954723
57.170 9.329977
57.175 9.426788
57.180 9.631637
57.185 9.555612
57.190 9.431635
57.195 9.665999
57.200 9.539661
57.205 9.494075
57.210 9.813654
57.215 10.016507
57.220 10.419155
57.225 10.267784
57.230 9.839395
57.235 10.209291
57.240 10.186384
57.245 9.987485
57.250 9.500333
57.255 9.178944
57.260 9.46278
57.265 9.620874
57.270 9.66177
57.275 9.817096
57.280 9.535637
57.285 9.577952
57.290 9.581843
57.295 9.715542
57.300 9.541907
57.305 9.217877
57.310 8.898159
57.315 9.474228
57.320 9.74369
57.325 9.702128
57.330 9.576095
57.335 9.986771
57.340 9.971382
57.345 9.99397
57.350 9.319736
57.355 8.842624
57.360 8.764834
57.365 8.551179
57.370 8.01334
57.375 8.360866
57.380 8.759989
57.385 9.359466
57.390 9.984259
57.395 9.932868
57.400 9.807318
57.405 9.852834
57.410 9.595449
57.415 9.153308
57.420 8.764793
57.425 8.07902
57.430 8.235352
57.435 8.561292
57.440 8.585049
57.445 8.502259
57.450 8.690214
57.455 8.81687
57.460 9.235863
57.465 9.089222
57.470 9.220557
57.475 9.710969
57.480 9.861175
57.485 9.951365
57.490 9.844724
57.495 9.827018
57.500 10.407509
57.505 10.65395
57.510 10.553321
57.515 10.582022
57.520 10.832612
57.525 11.090614
57.530 11.960348
57.535 11.730122
57.540 11.359881
57.545 11.748797
57.550 11.69413
57.555 11.336544
57.560 11.617369
57.565 10.998635
57.570 10.705227
57.575 10.653726
57.580 10.539268
57.585 10.278293
57.590 9.748676
57.595 9.187861
57.600 9.249142
57.605 9.223907
57.610 9.005287
57.615 9.256
57.620 9.72676
57.625 10.310933
57.630 10.488056
57.635 10.451339
57.640 10.588055
57.645 10.365085
57.650 9.729139
57.655 9.561883
57.660 9.42637
57.665 8.908914
57.670 9.043703
57.675 9.412724
57.680 9.647712
57.685 9.813178
57.690 9.72093
57.695 9.508006
57.700 9.864514
57.705 9.437082
57.710 9.345576
57.715 9.045185
57.720 8.793112
57.725 8.915789
57.730 9.166915
57.735 9.306864
57.740 9.221048
57.745 9.183218
57.750 9.16833
57.755 9.34454
57.760 9.572145
57.765 9.454014
57.770 9.358846
57.775 9.6707
57.780 9.773504
57.785 10.189409
57.790 9.978862
57.795 9.820862
57.800 9.681279
57.805 9.965405
57.810 9.91475
57.815 9.870463
57.820 9.814049
57.825 9.817929
57.830 9.914484
57.835 9.826302
57.840 9.898405
57.845 9.591032
57.850 9.581043
57.855 9.276732
57.860 8.838218
57.865 8.567796
57.870 8.801865
57.875 8.430962
57.880 8.165895
57.885 8.438643
57.890 8.83462
57.895 9.346107
57.900 9.423767
57.905 8.838638
57.910 9.01155
57.915 9.112374
57.920 8.944291
57.925 8.923349
57.930 8.851974
57.935 9.341578
57.940 9.4606
57.945 9.423427
57.950 9.509227
57.955 9.62688
57.960 9.943503
57.965 10.018915
57.970 9.338189
57.975 9.45234
57.980 9.240257
57.985 9.391106
57.990 9.130231
57.995 8.715963
58.000 8.498306
58.005 9.07639
58.010 9.445749
58.015 9.737645
58.020 10.014034
58.025 10.124325
58.030 10.032372
58.035 10.175363
58.040 9.758657
58.045 9.444097
58.050 9.290288
58.055 9.200214
58.060 9.265987
58.065 9.449527
58.070 9.393524
58.075 9.539755
58.080 9.94302
58.085 10.037477
58.090 9.621758
58.095 9.607629
58.100 9.350292
58.105 9.589468
58.110 9.807302
58.115 9.361599
58.120 9.532445
58.125 9.860901
58.130 9.968066
58.135 9.88654
58.140 9.513371
58.145 9.265174
58.150 9.338677
58.155 8.732777
58.160 8.530057
58.165 8.543697
58.170 8.56852
58.175 8.772088
58.180 9.354559
58.185 9.47368
58.190 9.669602
58.195 9.394867
58.200 9.633437
58.205 9.848062
58.210 9.7899
58.215 9.380716
58.220 9.16253
58.225 8.704604
58.230 8.843256
58.235 8.552387
58.240 8.500299
58.245 8.070147
58.250 8.25369
58.255 8.474986
58.260 8.608462
58.265 8.542785
58.270 8.498524
58.275 8.474372
58.280 9.12044
58.285 9.312404
58.290 10.087499
58.295 10.622957
58.300 10.800611
58.305 11.197522
58.310 11.343351
58.315 11.177839
58.320 10.792855
58.325 10.238339
58.330 9.991918
58.335 9.735641
58.340 9.569258
58.345 9.30884
58.350 9.038526
58.355 9.297638
58.360 9.462912
58.365 9.913583
58.370 10.330462
58.375 10.339087
58.380 10.599183
58.385 11.314307
58.390 11.169642
58.395 10.826212
58.400 10.554272
58.405 10.637573
58.410 10.59514
58.415 10.730554
58.420 9.876255
58.425 9.468502
58.430 9.172112
58.435 9.148479
58.440 8.888787
58.445 8.856503
58.450 8.768696
58.455 9.052876
58.460 9.96009
58.465 10.466339
58.470 10.484
58.475 10.649209
58.480 10.6889
58.485 10.613157
58.490 10.232352
58.495 9.957729
58.500 10.169957
58.505 10.611032
58.510 10.331676
58.515 10.496787
58.520 10.483097
58.525 10.588661
58.530 10.408799
58.535 9.83227
58.540 9.388382
58.545 9.776045
58.550 9.774029
58.555 9.806706
58.560 10.059975
58.565 10.396732
58.570 10.158857
58.575 9.945906
58.580 9.993434
58.585 9.913074
58.590 9.695951
58.595 9.421231
58.600 9.13824
58.605 9.722559
58.610 9.718595
58.615 9.249291
58.620 9.342736
58.625 9.617079
58.630 10.153738
58.635 10.348111
58.640 10.074821
58.645 10.119158
58.650 10.390111
58.655 10.135634
58.660 10.203893
58.665 10.227928
58.670 10.16046
58.675 10.036585
58.680 10.336264
58.685 10.058403
58.690 10.301539
58.695 10.615809
58.700 10.459415
58.705 11.062466
58.710 11.509569
58.715 11.08036
58.720 10.903726
58.725 10.978635
58.730 11.128836
58.735 10.997035
58.740 10.298057
58.745 9.994324
58.750 10.431871
58.755 10.817149
58.760 10.90554
58.765 10.649027
58.770 10.591025
58.775 10.791137
58.780 11.084435
58.785 10.983
58.790 10.961131
58.795 10.610849
58.800 10.600015
58.805 10.651717
58.810 10.297121
58.815 10.021601
58.820 9.84062
58.825 9.583684
58.830 9.503128
58.835 8.900566
58.840 8.810901
58.845 9.004477
58.850 9.155354
58.855 9.480344
58.860 9.639806
58.865 9.876693
58.870 10.252123
58.875 10.112065
58.880 10.176134
58.885 10.009476
58.890 9.779865
58.895 9.835745
58.900 9.533578
58.905 8.965211
58.910 8.688716
58.915 8.361197
58.920 8.245466
58.925 8.573849
58.930 8.521618
58.935 8.745753
58.940 9.273191
58.945 10.157262
58.950 10.763485
58.955 10.816318
58.960 10.151484
58.965 10.24664
58.970 10.179912
58.975 10.150574
58.980 9.301095
58.985 8.920045
58.990 8.897674
58.995 9.129428
59.000 8.965402
59.005 9.125097
59.010 8.932758
59.015 9.484112
59.020 9.427376
59.025 9.533937
59.030 9.247782
59.035 9.017404
59.040 8.889651
59.045 8.767438
59.050 8.541761
59.055 8.509432
59.060 8.578768
59.065 8.836496
59.070 9.193874
59.075 9.149716
59.080 9.126959
59.085 8.504074
59.090 8.307276
59.095 8.351398
59.100 8.419093
59.105 8.248449
59.110 8.354179
59.115 8.515424
59.120 9.014601
59.125 9.080266
59.130 9.066225
59.135 8.792742
59.140 8.781279
59.145 8.965115
59.150 9.293903
59.155 9.748995
59.160 10.105367
59.165 9.946745
59.170 10.319864
59.175 10.351127
59.180 10.190949
59.185 9.839964
59.190 9.172871
59.195 8.808775
59.200 8.534824
59.205 8.257
59.210 8.448977
59.215 8.760389
59.220 9.16134
59.225 9.335529
59.230 9.723455
59.235 10.366401
59.240 10.479063
59.245 10.173794
59.250 9.786035
59.255 9.414206
59.260 9.346653
59.265 9.204664
59.270 8.884821
59.275 8.578898
59.280 8.271697
59.285 8.236316
59.290 8.517337
59.295 8.570876
59.300 8.8805
59.305 8.679253
59.310 8.60574
59.315 8.729238
59.320 9.029997
59.325 9.260859
59.330 9.356964
59.335 9.21135
59.340 9.602597
59.345 9.781223
59.350 9.808318
59.355 9.751312
59.360 9.40821
59.365 9.236242
59.370 9.295216
59.375 9.169868
59.380 9.32429
59.385 9.456789
59.390 9.797903
59.395 10.111927
59.400 10.288198
59.405 10.176069
59.410 9.937515
59.415 9.701527
59.420 9.642222
59.425 9.299241
59.430 9.695918
59.435 9.755578
59.440 9.949673
59.445 10.480036
59.450 10.719587
59.455 10.549118
59.460 10.688227
59.465 9.996344
59.470 9.776294
59.475 9.593957
59.480 9.378238
59.485 9.078602
59.490 9.037163
59.495 8.636
59.500 8.626604
59.505 8.67738
59.510 8.83987
59.515 8.974792
59.520 9.191417
59.525 9.310237
59.530 9.227879
59.535 9.540699
59.540 9.615807
59.545 9.656942
59.550 9.868706
59.555 10.015756
59.560 9.88271
59.565 9.937153
59.570 9.196446
59.575 8.924705
59.580 8.677598
59.585 8.278559
59.590 8.321096
59.595 8.490451
59.600 8.553092
59.605 9.468191
59.610 10.08218
59.615 10.25183
59.620 10.42501
59.625 10.656198
59.630 10.722134
59.635 11.212331
59.640 11.198858
59.645 11.145227
59.650 11.224643
59.655 11.329551
59.660 11.18786
59.665 11.245211
59.670 10.954178
59.675 10.716147
59.680 10.172759
59.685 9.995055
59.690 9.997111
59.695 9.955358
59.700 9.921041
59.705 9.862063
59.710 9.491755
59.715 9.509833
59.720 9.492644
59.725 9.314754
59.730 9.147372
59.735 9.42433
59.740 9.507357
59.745 10.505381
59.750 10.749877
59.755 10.605825
59.760 11.021415
59.765 11.383057
59.770 10.851713
59.775 10.972397
59.780 10.489844
59.785 10.590747
59.790 10.517576
59.795 10.045519
59.800 10.209988
59.805 10.48498
59.810 10.130597
59.815 10.37175
59.820 10.331533
59.825 10.434551
59.830 10.663188
59.835 10.290214
59.840 10.369661
59.845 10.399632
59.850 9.858517
59.855 9.759027
59.860 9.995096
59.865 9.690806
59.870 9.413013
59.875 9.402328
59.880 9.289542
59.885 9.729459
59.890 9.540997
59.895 9.089108
59.900 9.262638
59.905 9.635502
59.910 9.396559
59.915 9.860017
59.920 10.011736
59.925 10.239659
59.930 10.456109
59.935 10.621632
59.940 10.599177
59.945 10.427934
59.950 9.942598
59.955 9.756027
59.960 9.683291
59.965 9.661718
59.970 9.344972
59.975 9.164232
59.980 9.536198
59.985 9.925014
59.990 9.993197
59.995 10.469684
60.000 10.41371
60.005 10.646607
60.010 11.000957
60.015 11.199115
60.020 10.409927
60.025 10.204206
60.030 10.128569
60.035 10.08646
60.040 9.614177
60.045 9.23755
60.050 9.062486
60.055 9.384148
60.060 9.678123
60.065 10.022258
60.070 10.07556
60.075 10.402654
60.080 10.032146
60.085 9.898765
60.090 9.628928
60.095 9.402424
60.100 9.133994
60.105 9.376348
60.110 9.384136
60.115 9.771671
60.120 9.824175
60.125 10.140628
60.130 9.895536
60.135 10.18068
60.140 9.906902
60.145 9.470286
60.150 9.578623
60.155 9.587316
60.160 9.950104
60.165 9.940905
60.170 9.522421
60.175 9.672383
60.180 10.000615
60.185 9.807221
60.190 9.543859
60.195 8.690477
60.200 8.95288
60.205 8.849661
60.210 8.704624
60.215 8.240445
60.220 8.059559
60.225 8.19639
60.230 8.236996
60.235 8.035975
60.240 7.967578
60.245 8.094626
60.250 8.448915
60.255 8.17271
60.260 7.905169
60.265 7.642566
60.270 7.714315
60.275 7.670939
60.280 7.697225
60.285 7.468168
60.290 7.788056
60.295 7.831089
60.300 7.734436
60.305 7.660669
60.310 7.724644
60.315 7.71022
60.320 7.629885
60.325 7.540592
60.330 8.201392
60.335 8.829943
60.340 9.281169
60.345 9.472286
60.350 9.855104
60.355 10.116379
60.360 10.408216
60.365 10.377389
60.370 10.119337
60.375 9.74455
60.380 9.650372
60.385 9.602181
60.390 9.467014
60.395 9.327183
60.400 8.951611
60.405 9.15117
60.410 9.498744
60.415 9.908883
60.420 10.054914
60.425 10.501653
60.430 10.777802
60.435 10.738029
60.440 10.24128
60.445 9.294393
60.450 8.916724
60.455 8.89984
60.460 8.517566
60.465 7.903114
60.470 8.180663
60.475 8.837666
60.480 9.370674
60.485 9.120798
60.490 9.197852
60.495 9.546242
60.500 9.6197
60.505 9.365726
60.510 8.994922
60.515 9.092974
60.520 8.949831
60.525 8.740363
60.530 8.494113
60.535 8.24445
60.540 8.232939
60.545 8.033739
60.550 7.992675
60.555 8.473537
60.560 8.595841
60.565 8.874063
60.570 8.997404
60.575 9.079863
60.580 9.478343
60.585 9.798183
60.590 9.957238
60.595 9.676147
60.600 9.81185
60.605 10.544115
60.610 10.612735
60.615 10.580303
60.620 10.148991
60.625 10.016035
60.630 10.026234
60.635 9.703668
60.640 9.688841
60.645 9.647724
60.650 9.917262
60.655 9.463952
60.660 9.045246
60.665 9.110277
60.670 8.872017
60.675 8.370584
60.680 8.02913
60.685 7.48082
60.690 7.585603
60.695 7.669818
60.700 7.830235
60.705 8.420577
60.710 8.614999
60.715 8.733582
60.720 8.68325
60.725 8.971119
60.730 9.050101
60.735 9.201925
60.740 9.135323
60.745 8.934405
60.750 9.284378
60.755 9.806758
60.760 9.879339
60.765 9.772632
60.770 9.816835
60.775 9.477944
60.780 9.195946
60.785 8.717479
60.790 8.325068
60.795 8.407912
60.800 8.583664
60.805 8.322227
60.810 8.863809
60.815 9.281004
60.820 9.520919
60.825 9.715556
60.830 9.640354
60.835 9.683778
60.840 9.305557
60.845 9.225041
60.850 9.445468
60.855 9.354995
60.860 9.270281
60.865 9.144191
60.870 8.693478
60.875 8.911009
60.880 8.726354
60.885 8.996919
60.890 9.29297
60.895 9.689956
60.900 9.668462
60.905 10.151411
60.910 10.404873
60.915 10.567275
60.920 10.053755
60.925 9.457416
60.930 9.353845
60.935 9.181229
60.940 8.637396
60.945 7.98673
60.950 7.663985
60.955 7.889122
60.960 8.293177
60.965 8.282462
60.970 8.487366
60.975 8.595936
60.980 8.554871
60.985 8.72295
60.990 9.061763
60.995 8.907194
61.000 8.448028
61.005 8.218508
61.010 8.310072
61.015 8.606038
61.020 8.408813
61.025 8.341413
61.030 8.545472
61.035 8.806154
61.040 9.086791
61.045 9.128766
61.050 9.178045
61.055 9.728271
61.060 9.606407
61.065 9.606833
61.070 9.750266
61.075 9.809933
61.080 9.795443
61.085 9.562688
61.090 8.809881
61.095 8.705725
61.100 8.484426
61.105 8.440958
61.110 8.489651
61.115 8.613885
61.120 8.828539
61.125 9.17625
61.130 8.876999
61.135 9.01082
61.140 8.97627
61.145 9.238902
61.150 8.990626
61.155 8.828552
61.160 9.041536
61.165 9.240892
61.170 9.311549
61.175 9.254695
61.180 9.310089
61.185 9.797103
61.190 10.116892
61.195 10.059522
61.200 10.259849
61.205 10.426619
61.210 10.538888
61.215 10.43774
61.220 10.30163
61.225 10.362064
61.230 10.305271
61.235 10.333495
61.240 10.034689
61.245 9.913108
61.250 9.5601
61.255 9.262315
61.260 9.093282
61.265 9.416634
61.270 9.20756
61.275 9.193383
61.280 9.114885
61.285 9.374258
61.290 9.724676
61.295 9.845573
61.300 9.632711
61.305 9.488318
61.310 9.467361
61.315 9.599338
61.320 9.439928
61.325 9.558391
61.330 9.427501
61.335 9.417285
61.340 9.835162
61.345 9.801102
61.350 9.438746
61.355 9.285418
61.360 8.989661
61.365 8.827909
61.370 8.46853
61.375 8.164344
61.380 8.249995
61.385 8.123091
61.390 8.084337
61.395 8.124718
61.400 7.961656
61.405 7.919743
61.410 8.180533
61.415 8.200378
61.420 8.300193
61.425 8.871269
61.430 9.249881
61.435 9.715578
61.440 10.138798
61.445 10.048347
61.450 10.048769
61.455 10.126427
61.460 10.115732
61.465 9.72092
61.470 10.008601
61.475 9.967987
61.480 9.986392
61.485 10.002542
61.490 10.109361
61.495 9.650839
61.500 9.606672
61.505 8.914707
61.510 8.494682
61.515 8.448065
61.520 8.586456
61.525 8.584316
61.530 8.730193
61.535 9.220964
61.540 9.410185
61.545 9.512323
61.550 9.250043
61.555 8.783048
61.560 8.472429
61.565 8.130448
61.570 7.995875
61.575 8.257414
61.580 8.54123
61.585 8.73237
61.590 8.657239
61.595 8.620444
61.600 8.745555
61.605 8.849052
61.610 8.564306
61.615 8.499549
61.620 8.705608
61.625 8.981005
61.630 9.433506
61.635 9.40106
61.640 9.298874
61.645 9.463792
61.650 9.51513
61.655 9.42417
61.660 9.587971
61.665 9.207028
61.670 9.253551
61.675 9.167861
61.680 9.124798
61.685 9.191747
61.690 9.245618
61.695 9.510078
61.700 9.665815
61.705 9.374781
61.710 8.975575
61.715 8.856178
61.720 8.643699
61.725 8.538959
61.730 8.54765
61.735 8.919817
61.740 9.427677
61.745 9.775532
61.750 9.486149
61.755 9.689034
61.760 9.791512
61.765 9.549981
61.770 9.203731
61.775 8.942467
61.780 9.103809
61.785 9.249879
61.790 9.302122
61.795 9.216058
61.800 9.507457
61.805 9.735999
61.810 9.775002
61.815 9.840729
61.820 10.173927
61.825 10.388742
61.830 10.615534
61.835 10.773439
61.840 10.901537
61.845 10.923724
61.850 10.534216
61.855 10.168904
61.860 10.088767
61.865 10.126106
61.870 9.718019
61.875 9.770241
61.880 9.810668
61.885 9.983891
61.890 10.261288
61.895 9.950951
61.900 9.559093
61.905 9.528483
61.910 9.21047
61.915 9.247161
61.920 9.021775
61.925 8.660076
61.930 8.371422
61.935 8.163626
61.940 8.105367
61.945 8.187389
61.950 8.060326
61.955 8.503108
61.960 8.866077
61.965 9.250772
61.970 9.801357
61.975 9.909717
61.980 9.917344
61.985 9.853367
61.990 9.821428
61.995 9.584398
62.000 9.589409
62.005 9.076661
62.010 8.952725
62.015 8.961231
62.020 9.126024
62.025 9.143135
62.030 9.207202
62.035 9.510528
62.040 9.879334
62.045 9.744702
62.050 9.763671
62.055 9.461427
62.060 9.210024
62.065 8.877004
62.070 8.890352
62.075 8.913834
62.080 9.561831
62.085 9.779951
62.090 10.443285
62.095 10.572534
62.100 10.354641
62.105 10.385168
62.110 10.612749
62.115 10.347045
62.120 10.197463
62.125 10.366838
62.130 11.041596
62.135 11.416613
62.140 11.296066
62.145 10.761029
62.150 10.626222
62.155 10.434628
62.160 10.338104
62.165 10.43395
62.170 10.830973
62.175 11.02594
62.180 11.485722
62.185 11.827657
62.190 11.950686
62.195 11.435552
62.200 10.945302
62.205 10.448202
62.210 10.279796
62.215 9.96699
62.220 9.465673
62.225 9.482417
62.230 9.169923
62.235 9.044139
62.240 9.316096
62.245 9.538163
62.250 9.730319
62.255 9.368828
62.260 9.516994
62.265 9.923638
62.270 9.590166
62.275 9.456621
62.280 9.118486
62.285 9.250147
62.290 9.981103
62.295 10.011578
62.300 10.011402
62.305 10.285081
62.310 9.80002
62.315 9.505692
62.320 9.27636
62.325 8.971114
62.330 8.835849
62.335 8.804676
62.340 8.735153
62.345 9.122629
62.350 9.599584
62.355 9.563046
62.360 9.676917
62.365 9.663629
62.370 9.864229
62.375 9.795162
62.380 9.685324
62.385 9.628859
62.390 9.761822
62.395 10.090561
62.400 10.292295
62.405 10.13023
62.410 10.173534
62.415 10.475995
62.420 10.193112
62.425 10.061637
62.430 9.689729
62.435 9.193728
62.440 9.126757
62.445 9.000684
62.450 9.000034
62.455 9.191683
62.460 9.590574
62.465 9.776613
62.470 10.191559
62.475 10.421751
62.480 10.436749
62.485 9.946646
62.490 10.06899
62.495 9.605079
62.500 9.405234
62.505 9.130111
62.510 9.092934
62.515 9.169132
62.520 9.539976
62.525 9.345018
62.530 9.220072
62.535 9.308627
62.540 9.448819
62.545 9.380028
62.550 9.705997
62.555 9.841096
62.560 9.960999
62.565 9.856874
62.570 9.951946
62.575 9.74249
62.580 9.419014
62.585 9.266074
62.590 9.234661
62.595 9.487253
62.600 9.618375
62.605 9.553884
62.610 9.792531
62.615 10.209885
62.620 10.082468
62.625 9.920682
62.630 9.953586
62.635 9.796585
62.640 9.618292
62.645 9.905725
62.650 10.098676
62.655 10.489076
62.660 10.716626
62.665 10.729537
62.670 10.947991
62.675 11.148949
62.680 10.902942
62.685 10.895111
62.690 10.895222
62.695 11.158894
62.700 11.60513
62.705 11.792422
62.710 12.094731
62.715 12.300314
62.720 12.207356
62.725 11.941823
62.730 12.066284
62.735 11.704615
62.740 11.560802
62.745 11.392859
62.750 11.270735
62.755 11.326039
62.760 11.044736
62.765 10.354084
62.770 10.568011
62.775 10.869745
62.780 10.750331
62.785 10.918088
62.790 10.945588
62.795 11.134417
62.800 11.115789
62.805 10.768394
62.810 10.363065
62.815 10.205971
62.820 9.686677
62.825 9.682942
62.830 10.138732
62.835 10.315428
62.840 10.765125
62.845 11.011457
62.850 10.862245
62.855 10.841659
62.860 10.579724
62.865 10.298961
62.870 10.303809
62.875 10.094689
62.880 10.211206
62.885 10.103333
62.890 10.141493
62.895 10.229367
62.900 9.886292
62.905 9.303072
62.910 9.161683
62.915 9.261805
62.920 9.480082
62.925 9.290234
62.930 9.177967
62.935 9.513926
62.940 9.579085
62.945 9.10977
62.950 8.675653
62.955 9.054687
62.960 9.291588
62.965 9.37829
62.970 9.807215
62.975 10.433613
62.980 10.903262
62.985 10.95249
62.990 10.79571
62.995 10.807924
63.000 10.637548
63.005 9.949699
63.010 9.636509
63.015 9.890814
63.020 9.636737
63.025 9.414959
63.030 9.449305
63.035 9.3412
63.040 9.384627
63.045 9.288212
63.050 9.208901
63.055 9.488669
63.060 9.688413
63.065 9.611435
63.070 9.604633
63.075 9.662663
63.080 9.89189
63.085 9.294162
63.090 8.951674
63.095 9.05066
63.100 9.255841
63.105 9.472362
63.110 9.313303
63.115 8.793137
63.120 9.340398
63.125 9.787325
63.130 9.456738
63.135 9.432611
63.140 9.497669
63.145 9.258153
63.150 9.199393
63.155 9.170745
63.160 8.996778
63.165 8.979939
63.170 8.973601
63.175 9.051354
63.180 9.793714
63.185 9.777583
63.190 9.659038
63.195 9.70492
63.200 9.426836
63.205 9.21019
63.210 8.760099
63.215 7.996053
63.220 8.456895
63.225 8.686723
63.230 9.347701
63.235 9.707407
63.240 10.081571
63.245 10.681016
63.250 11.445008
63.255 11.195452
63.260 10.817172
63.265 10.404643
63.270 9.973083
63.275 9.916492
63.280 9.58235
63.285 9.354492
63.290 9.557935
63.295 9.441787
63.300 9.496799
63.305 10.105933
63.310 10.136529
63.315 10.035227
63.320 10.277768
63.325 10.242336
63.330 10.397857
63.335 10.347548
63.340 10.066364
63.345 9.963354
63.350 10.425487
63.355 10.399795
63.360 10.396164
63.365 10.999939
63.370 11.355518
63.375 11.66035
63.380 12.232231
63.385 12.326444
63.390 12.238399
63.395 11.923244
63.400 11.178644
63.405 10.790067
63.410 10.934253
63.415 10.733042
63.420 10.105155
63.425 9.793098
63.430 9.902876
63.435 10.384396
63.440 10.505822
63.445 9.795776
63.450 9.555693
63.455 9.866485
63.460 10.158589
63.465 10.31932
63.470 9.797801
63.475 9.993022
63.480 10.393992
63.485 10.456834
63.490 10.524727
63.495 10.674974
63.500 10.800408
63.505 11.081679
63.510 10.605261
63.515 10.381518
63.520 10.053998
63.525 10.112373
63.530 9.533877
63.535 9.278644
63.540 9.081114
63.545 9.127668
63.550 9.053489
63.555 9.461608
63.560 9.375618
63.565 9.699216
63.570 9.600376
63.575 9.846886
63.580 10.276223
63.585 10.522012
63.590 10.283762
63.595 10.260044
63.600 10.030355
63.605 10.14369
63.610 9.955282
63.615 9.511744
63.620 9.469476
63.625 9.601445
63.630 9.671506
63.635 9.683478
63.640 9.746599
63.645 9.910184
63.650 10.007362
63.655 10.112197
63.660 10.321367
63.665 10.496482
63.670 10.834362
63.675 10.873837
63.680 10.6909
63.685 10.866481
63.690 10.498362
63.695 9.620818
63.700 9.109617
63.705 8.485474
63.710 8.331281
63.715 8.049092
63.720 7.833108
63.725 7.90799
63.730 8.190286
63.735 8.436117
63.740 8.808774
63.745 8.558038
63.750 8.674623
63.755 8.751853
63.760 8.829758
63.765 9.096777
63.770 9.589115
63.775 9.862094
63.780 10.385065
63.785 10.151798
63.790 9.866231
63.795 9.790623
63.800 9.584648
63.805 9.134308
63.810 8.763206
63.815 8.952584
63.820 8.772885
63.825 8.863282
63.830 8.822913
63.835 9.076287
63.840 8.976979
63.845 8.805649
63.850 8.595923
63.855 9.088871
63.860 9.270294
63.865 9.319519
63.870 9.217327
63.875 9.252606
63.880 9.038964
63.885 8.848533
63.890 9.353808
63.895 9.505707
63.900 9.259502
63.905 8.947162
63.910 9.149946
63.915 9.576273
63.920 9.541374
63.925 8.699978
63.930 8.55362
63.935 8.688125
63.940 8.72144
63.945 8.574671
63.950 8.601965
63.955 8.719663
63.960 9.151032
63.965 9.532238
63.970 9.532848
63.975 9.475838
63.980 9.15964
63.985 9.330702
63.990 9.472973
63.995 9.554013
64.000 9.490195
64.005 10.080934
64.010 10.770873
64.015 11.089723
64.020 11.248906
64.025 11.194361
64.030 10.977845
64.035 10.899913
64.040 10.557007
64.045 9.917776
64.050 9.607485
64.055 9.184895
64.060 9.090675
64.065 9.040565
64.070 8.724784
64.075 8.707619
64.080 8.995029
64.085 9.128974
64.090 9.138407
64.095 9.275547
64.100 9.643445
64.105 10.071046
64.110 10.141735
64.115 9.978663
64.120 9.571348
64.125 9.461815
64.130 9.244665
64.135 8.990186
64.140 8.8473
64.145 8.913273
64.150 9.259714
64.155 10.094188
64.160 10.394646
64.165 10.229454
64.170 10.069136
64.175 10.012012
64.180 9.79534
64.185 9.575429
64.190 8.905412
64.195 9.13551
64.200 9.316922
64.205 9.464726
64.210 9.418391
64.215 9.592385
64.220 9.73689
64.225 9.798477
64.230 9.621792
64.235 9.643968
64.240 9.67933
64.245 9.77796
64.250 9.584579
64.255 9.12868
64.260 8.941668
64.265 8.918115
64.270 9.208503
64.275 9.334221
64.280 9.125025
64.285 9.102299
64.290 9.355576
64.295 9.300791
64.300 9.278206
64.305 9.284049
64.310 9.230129
64.315 9.493834
64.320 9.449656
64.325 9.840478
64.330 10.435498
64.335 10.932022
64.340 10.975726
64.345 10.993714
64.350 11.233179
64.355 11.383492
64.360 11.12579
64.365 10.93337
64.370 10.867151
64.375 10.788366
64.380 11.048781
64.385 11.048323
64.390 11.001689
64.395 11.319963
64.400 11.566108
64.405 11.45449
64.410 11.503388
64.415 11.20141
64.420 11.005549
64.425 10.882087
64.430 10.40402
64.435 10.048929
64.440 10.116225
64.445 9.999243
64.450 10.15151
64.455 10.393366
64.460 10.277231
64.465 10.977109
64.470 10.978745
64.475 10.771715
64.480 10.587196
64.485 10.500905
64.490 10.679009
64.495 11.169317
64.500 10.77482
64.505 11.081244
64.510 11.298146
64.515 11.583085
64.520 11.832316
64.525 11.831405
64.530 11.92003
64.535 12.036211
64.540 11.719885
64.545 11.251851
64.550 10.981221
64.555 10.794385
64.560 10.582517
64.565 10.368532
64.570 10.03275
64.575 10.518209
64.580 10.65638
64.585 10.756229
64.590 10.88732
64.595 11.164527
64.600 11.10814
64.605 11.565022
64.610 11.557827
64.615 11.935427
64.620 11.891319
64.625 11.637527
64.630 11.589995
64.635 12.161204
64.640 12.2361
64.645 11.951873
64.650 12.09274
64.655 12.449343
64.660 12.750114
64.665 12.846381
64.670 12.259692
64.675 11.606815
64.680 11.543257
64.685 11.43316
64.690 11.356702
64.695 11.147672
64.700 10.810949
64.705 11.34379
64.710 12.194215
64.715 12.564319
64.720 12.853388
64.725 12.780822
64.730 12.69
64.735 12.540242
64.740 12.268654
64.745 11.720438
64.750 11.595579
64.755 11.382169
64.760 11.546375
64.765 11.751758
64.770 12.375942
64.775 12.586643
64.780 13.118923
64.785 13.118679
64.790 13.317651
64.795 13.646647
64.800 14.242848
64.805 14.639043
64.810 14.892601
64.815 14.840668
64.820 14.690161
64.825 14.811041
64.830 14.986072
64.835 14.857092
64.840 14.435292
64.845 15.058475
64.850 15.613349
64.855 16.660906
64.860 16.991697
64.865 16.89208
64.870 16.596384
64.875 16.703491
64.880 16.231787
64.885 16.01272
64.890 15.125568
64.895 14.732372
64.900 15.341696
64.905 16.294413
64.910 16.625908
64.915 16.892517
64.920 16.31756
64.925 16.84005
64.930 17.34502
64.935 17.588491
64.940 17.555084
64.945 17.688066
64.950 18.456556
64.955 19.474022
64.960 20.328512
64.965 19.914982
64.970 19.962709
64.975 19.610048
64.980 19.266809
64.985 19.122438
64.990 19.063936
64.995 18.825613
65.000 19.576727
65.005 20.298544
65.010 20.798073
65.015 20.794916
65.020 21.393408
65.025 21.842628
65.030 22.327257
65.035 21.907728
65.040 21.257971
65.045 20.811523
65.050 20.809334
65.055 20.606695
65.060 20.247749
65.065 19.852076
65.070 19.440926
65.075 19.223425
65.080 19.657581
65.085 20.246624
65.090 20.207481
65.095 19.93672
65.100 19.65807
65.105 19.970507
65.110 19.564301
65.115 19.000908
65.120 18.778091
65.125 18.54734
65.130 18.569077
65.135 18.614786
65.140 17.957638
65.145 18.224499
65.150 18.105019
65.155 17.536465
65.160 17.039078
65.165 16.978827
65.170 17.145548
65.175 17.544901
65.180 17.44702
65.185 17.293995
65.190 16.581589
65.195 16.554939
65.200 16.60528
65.205 16.131538
65.210 15.370894
65.215 15.005386
65.220 15.317302
65.225 15.595576
65.230 15.699822
65.235 15.049563
65.240 14.752348
65.245 14.956268
65.250 15.304673
65.255 14.823979
65.260 14.232545
65.265 13.542947
65.270 13.945083
65.275 13.67009
65.280 13.691882
65.285 13.466743
65.290 13.527026
65.295 13.951397
65.300 13.471475
65.305 13.330077
65.310 13.728332
65.315 13.9914
65.320 13.816001
65.325 13.731853
65.330 13.582214
65.335 13.597277
65.340 13.314333
65.345 13.202599
65.350 12.460423
65.355 12.124243
65.360 11.926582
65.365 12.172781
65.370 12.436398
65.375 12.013474
65.380 11.371144
65.385 11.238537
65.390 11.160683
65.395 11.270584
65.400 10.94428
65.405 10.782332
65.410 11.408903
65.415 11.230935
65.420 11.268154
65.425 11.481473
65.430 11.169299
65.435 10.837103
65.440 10.609582
65.445 10.050326
65.450 10.175469
65.455 9.815349
65.460 9.811456
65.465 9.860769
65.470 10.022412
65.475 10.013237
65.480 10.029037
65.485 10.25307
65.490 10.533652
65.495 10.551304
65.500 11.095706
65.505 11.14945
65.510 11.106835
65.515 11.191157
65.520 11.263267
65.525 10.925552
65.530 10.638136
65.535 10.075129
65.540 9.714914
65.545 9.626863
65.550 9.663069
65.555 9.375789
65.560 9.356733
65.565 9.321023
65.570 9.053671
65.575 9.15364
65.580 9.223715
65.585 8.881972
65.590 8.977198
65.595 8.896243
65.600 9.295995
65.605 9.829605
65.610 9.816611
65.615 10.011159
65.620 10.464924
65.625 11.186807
65.630 11.204768
65.635 11.180402
65.640 11.191098
65.645 11.014527
65.650 10.634756
65.655 10.154094
65.660 9.389272
65.665 9.443605
65.670 9.209043
65.675 8.912782
65.680 9.087992
65.685 9.1579
65.690 9.725592
65.695 9.950521
65.700 10.243631
65.705 10.623219
65.710 10.830014
65.715 11.056121
65.720 10.775566
65.725 10.495481
65.730 10.57233
65.735 10.421878
65.740 10.299268
65.745 10.246065
65.750 9.78067
65.755 10.185399
65.760 10.300121
65.765 10.303493
65.770 10.360181
65.775 10.312391
65.780 10.63118
65.785 11.099854
65.790 11.050017
65.795 10.918765
65.800 10.848426
65.805 10.598804
65.810 10.386367
65.815 10.387331
65.820 10.63891
65.825 10.330796
65.830 10.293217
65.835 10.438679
65.840 10.299947
65.845 10.089357
65.850 9.658375
65.855 9.377644
65.860 9.604868
65.865 9.493116
65.870 9.397439
65.875 9.693886
65.880 9.793554
65.885 9.812766
65.890 9.860503
65.895 9.627836
65.900 10.064769
65.905 10.302789
65.910 10.78682
65.915 10.825105
65.920 11.106784
65.925 11.159921
65.930 11.167593
65.935 10.865595
65.940 10.615193
65.945 9.90544
65.950 10.121573
65.955 9.78266
65.960 9.578325
65.965 9.805578
65.970 9.832022
65.975 9.528776
65.980 9.596743
65.985 9.294601
65.990 9.359318
65.995 9.567576
66.000 9.409153
66.005 9.450143
66.010 9.527904
66.015 9.575216
66.020 9.558003
66.025 9.804886
66.030 10.216279
66.035 9.997031
66.040 9.971401
66.045 10.534945
66.050 10.549388
66.055 10.524184
66.060 10.194951
66.065 9.843406
66.070 9.994316
66.075 9.697619
66.080 9.476739
66.085 9.80829
66.090 10.224583
66.095 10.767304
66.100 10.800667
66.105 10.962146
66.110 11.431269
66.115 11.158785
66.120 10.66491
66.125 10.365871
66.130 10.300373
66.135 10.377263
66.140 10.24644
66.145 10.189602
66.150 10.363134
66.155 10.391141
66.160 10.295138
66.165 9.791388
66.170 9.870368
66.175 9.806993
66.180 9.748959
66.185 9.709865
66.190 10.049343
66.195 10.004177
66.200 10.101516
66.205 9.875889
66.210 9.681945
66.215 9.56201
66.220 9.852304
66.225 9.674506
66.230 9.805639
66.235 9.915339
66.240 10.156906
66.245 10.247555
66.250 10.632155
66.255 10.637826
66.260 10.6612
66.265 10.629571
66.270 10.925353
66.275 10.892381
66.280 11.013474
66.285 10.484195
66.290 10.373188
66.295 10.314611
66.300 10.517802
66.305 10.493851
66.310 9.998296
66.315 9.986509
66.320 9.968741
66.325 9.971004
66.330 9.879745
66.335 9.393616
66.340 9.297665
66.345 9.684829
66.350 9.594997
66.355 9.565849
66.360 9.610691
66.365 9.706385
66.370 9.564726
66.375 9.071855
66.380 8.857181
66.385 9.065065
66.390 9.370631
66.395 9.284403
66.400 9.370739
66.405 9.676661
66.410 10.0207
66.415 10.190096
66.420 10.07827
66.425 9.787157
66.430 9.919457
66.435 9.896128
66.440 9.973607
66.445 9.843178
66.450 9.785007
66.455 9.948208
66.460 10.035851
66.465 10.061157
66.470 9.590129
66.475 9.254717
66.480 9.593975
66.485 10.113142
66.490 10.171079
66.495 10.160542
66.500 10.113485
66.505 10.851504
66.510 11.106714
66.515 10.610173
66.520 10.2995
66.525 10.086986
66.530 9.990926
66.535 9.729872
66.540 9.500257
66.545 9.351089
66.550 9.93646
66.555 9.856619
66.560 9.924088
66.565 9.810095
66.570 9.696684
66.575 9.573525
66.580 9.33687
66.585 8.657356
66.590 8.573739
66.595 8.945017
66.600 9.438899
66.605 9.806185
66.610 10.138477
66.615 10.374193
66.620 10.817819
66.625 10.822689
66.630 10.649217
66.635 10.398762
66.640 10.117729
66.645 10.080837
66.650 10.193348
66.655 10.238747
66.660 10.146981
66.665 10.044165
66.670 10.072903
66.675 10.27024
66.680 10.164113
66.685 9.768657
66.690 9.45663
66.695 9.605931
66.700 9.264727
66.705 9.356071
66.710 9.303989
66.715 9.133278
66.720 9.015552
66.725 8.973485
66.730 9.054576
66.735 9.003059
66.740 8.858242
66.745 9.026469
66.750 9.449875
66.755 9.828012
66.760 10.305391
66.765 10.149529
66.770 10.535268
66.775 10.303535
66.780 9.893709
66.785 9.593598
66.790 9.375399
66.795 8.773703
66.800 8.794862
66.805 8.882991
66.810 8.998449
66.815 8.902539
66.820 8.905178
66.825 9.206754
66.830 9.605608
66.835 9.386343
66.840 9.499733
66.845 9.416715
66.850 9.691007
66.855 9.892976
66.860 9.604577
66.865 9.193623
66.870 9.338439
66.875 9.122501
66.880 9.400655
66.885 9.385596
66.890 9.346987
66.895 9.402787
66.900 9.391104
66.905 9.54165
66.910 9.441316
66.915 9.397876
66.920 9.063645
66.925 8.917095
66.930 9.256794
66.935 9.138637
66.940 9.023347
66.945 9.289532
66.950 9.137656
66.955 8.942583
66.960 9.047881
66.965 8.618243
66.970 8.711885
66.975 8.807629
66.980 8.733942
66.985 8.87356
66.990 8.965315
66.995 8.995866
67.000 9.979977
67.005 10.294561
67.010 10.170227
67.015 10.025405
67.020 9.937495
67.025 10.266792
67.030 10.154778
67.035 9.602819
67.040 10.090999
67.045 10.201359
67.050 10.2328
67.055 10.184683
67.060 10.327099
67.065 10.302958
67.070 9.967148
67.075 9.528999
67.080 9.461043
67.085 9.800035
67.090 9.902545
67.095 9.39595
67.100 9.535891
67.105 9.56552
67.110 9.446537
67.115 9.390558
67.120 9.431404
67.125 9.15605
67.130 9.490198
67.135 9.470759
67.140 9.623744
67.145 9.816014
67.150 9.646556
67.155 9.646257
67.160 9.807228
67.165 9.824183
67.170 9.48173
67.175 8.79638
67.180 8.527183
67.185 8.336401
67.190 8.231701
67.195 8.308558
67.200 8.084937
67.205 8.192456
67.210 8.850851
67.215 9.557793
67.220 10.071383
67.225 10.162956
67.230 10.308409
67.235 10.611402
67.240 10.716718
67.245 10.316927
67.250 10.099162
67.255 9.951006
67.260 9.89185
67.265 9.565913
67.270 9.314316
67.275 9.244087
67.280 9.369864
67.285 9.27944
67.290 9.161353
67.295 8.834721
67.300 8.748848
67.305 8.882681
67.310 9.084586
67.315 9.051702
67.320 9.00874
67.325 8.757854
67.330 8.851906
67.335 8.979139
67.340 8.818065
67.345 8.553888
67.350 8.197095
67.355 8.040469
67.360 8.632399
67.365 8.949914
67.370 9.037622
67.375 9.013311
67.380 9.638669
67.385 9.915586
67.390 9.694014
67.395 9.021622
67.400 8.785129
67.405 8.715814
67.410 8.850084
67.415 8.421878
67.420 8.456517
67.425 9.164279
67.430 9.529557
67.435 9.699428
67.440 9.688949
67.445 9.726921
67.450 9.57954
67.455 9.282268
67.460 9.00928
67.465 9.147381
67.470 9.041495
67.475 9.102491
67.480 9.023069
67.485 9.037878
67.490 9.367617
67.495 9.288539
67.500 9.313276
67.505 9.719502
67.510 9.843556
67.515 9.661104
67.520 9.597879
67.525 9.579236
67.530 9.61177
67.535 9.539679
67.540 8.883414
67.545 9.152163
67.550 10.158309
67.555 10.257391
67.560 10.089985
67.565 10.049724
67.570 10.120532
67.575 10.459767
67.580 10.11373
67.585 9.562789
67.590 9.684933
67.595 9.734341
67.600 9.611804
67.605 9.584734
67.610 9.615127
67.615 9.277501
67.620 8.748071
67.625 8.209108
67.630 8.175735
67.635 8.281121
67.640 8.300102
67.645 8.244491
67.650 8.250944
67.655 8.492391
67.660 8.746428
67.665 8.792143
67.670 8.750632
67.675 8.516749
67.680 8.461214
67.685 8.710671
67.690 8.706035
67.695 8.938662
67.700 9.439526
67.705 9.835489
67.710 9.926172
67.715 10.05383
67.720 9.692391
67.725 10.117812
67.730 10.293346
67.735 9.631162
67.740 9.047241
67.745 9.124668
67.750 9.026189
67.755 9.369271
67.760 9.139619
67.765 8.637846
67.770 8.904896
67.775 9.176743
67.780 9.032291
67.785 9.180159
67.790 9.379179
67.795 9.525702
67.800 10.088884
67.805 10.279263
67.810 10.415807
67.815 10.725025
67.820 10.807137
67.825 10.607471
67.830 10.268737
67.835 9.951862
67.840 10.062593
67.845 9.840475
67.850 9.823771
67.855 9.654245
67.860 9.921788
67.865 10.588291
67.870 10.749356
67.875 10.943258
67.880 11.323302
67.885 11.295194
67.890 11.199787
67.895 11.359912
67.900 11.056966
67.905 10.644331
67.910 9.593946
67.915 9.009511
67.920 8.906857
67.925 9.06013
67.930 8.680626
67.935 8.702445
67.940 9.333065
67.945 9.634554
67.950 10.146298
67.955 10.274889
67.960 10.051484
67.965 9.777015
67.970 9.692611
67.975 9.677493
67.980 9.891655
67.985 9.942236
67.990 10.315145
67.995 10.699134
68.000 10.906151
68.005 10.96567
68.010 10.701749
68.015 10.555378
68.020 10.178078
68.025 9.855793
68.030 9.802666
68.035 9.974758
68.040 9.688483
68.045 9.702102
68.050 9.789143
68.055 10.040629
68.060 10.549399
68.065 10.699998
68.070 10.501369
68.075 10.696061
68.080 10.561068
68.085 10.296108
68.090 9.969259
68.095 9.392269
68.100 9.057841
68.105 8.752498
68.110 9.063242
68.115 9.440576
68.120 9.767869
68.125 9.776516
68.130 10.0502
68.135 10.322659
68.140 10.509355
68.145 10.138556
68.150 10.060143
68.155 10.239247
68.160 10.396255
68.165 10.478827
68.170 10.598641
68.175 11.117126
68.180 11.34984
68.185 11.129747
68.190 10.547935
68.195 10.502259
68.200 9.908701
68.205 9.520188
68.210 8.968509
68.215 8.512938
68.220 8.699235
68.225 8.733407
68.230 8.749145
68.235 9.175522
68.240 9.183398
68.245 9.406333
68.250 9.44337
68.255 9.244957
68.260 9.605367
68.265 9.612011
68.270 9.652235
68.275 9.874086
68.280 9.988431
68.285 10.258914
68.290 10.359559
68.295 10.307242
68.300 10.468484
68.305 10.410966
68.310 10.384903
68.315 10.376759
68.320 10.33214
68.325 10.04777
68.330 9.743616
68.335 9.643621
68.340 9.548504
68.345 8.924497
68.350 8.742014
68.355 8.755509
68.360 9.169518
68.365 9.231671
68.370 9.529601
68.375 9.649408
68.380 10.18931
68.385 10.172578
68.390 9.898026
68.395 9.400336
68.400 9.092912
68.405 8.72099
68.410 8.333591
68.415 8.249434
68.420 8.124522
68.425 8.461272
68.430 8.615629
68.435 8.572676
68.440 8.699349
68.445 8.713253
68.450 8.521256
68.455 8.63587
68.460 8.386443
68.465 8.55042
68.470 8.503699
68.475 8.827189
68.480 8.811032
68.485 8.803075
68.490 8.957576
68.495 8.930492
68.500 9.07116
68.505 9.163095
68.510 8.780845
68.515 8.950357
68.520 9.125421
68.525 8.942142
68.530 8.795109
68.535 8.571828
68.540 8.713273
68.545 9.058286
68.550 9.207247
68.555 9.105663
68.560 9.341733
68.565 9.799726
68.570 9.789923
68.575 9.706207
68.580 9.496728
68.585 9.589926
68.590 9.545295
68.595 9.292714
68.600 9.479648
68.605 9.628428
68.610 9.783416
68.615 10.027786
68.620 10.093774
68.625 10.285496
68.630 10.429679
68.635 9.946524
68.640 9.786143
68.645 9.620946
68.650 9.204867
68.655 9.426557
68.660 9.423368
68.665 9.288817
68.670 9.26713
68.675 9.029407
68.680 8.888352
68.685 9.03781
68.690 8.966093
68.695 8.950418
68.700 8.974425
68.705 9.398508
68.710 9.657271
68.715 9.626077
68.720 9.443984
68.725 9.387907
68.730 9.392776
68.735 9.592463
68.740 9.833176
68.745 10.100916
68.750 10.336897
68.755 10.440084
68.760 10.780228
68.765 11.357423
68.770 11.364796
68.775 11.301939
68.780 11.164916
68.785 10.931356
68.790 10.780978
68.795 10.24084
68.800 9.752234
68.805 9.504304
68.810 9.423036
68.815 9.390003
68.820 9.512208
68.825 9.560523
68.830 9.795655
68.835 9.737177
68.840 9.341674
68.845 9.594205
68.850 9.734852
68.855 9.503375
68.860 9.25125
68.865 8.792884
68.870 9.169004
68.875 9.173138
68.880 8.33381
68.885 8.158779
68.890 8.513242
68.895 9.148015
68.900 9.331473
68.905 9.18561
68.910 9.485013
68.915 10.031733
68.920 10.233491
68.925 9.831733
68.930 9.468178
68.935 9.976124
68.940 10.043734
68.945 9.744498
68.950 9.415088
68.955 9.445227
68.960 9.646681
68.965 9.484672
68.970 9.136473
68.975 9.249605
68.980 9.669044
68.985 9.994979
68.990 10.193916
68.995 10.5318
69.000 11.096849
69.005 10.97517
69.010 11.041096
69.015 10.986766
69.020 11.036215
69.025 10.972128
69.030 10.847027
69.035 10.552139
69.040 10.488022
69.045 10.709332
69.050 10.77439
69.055 10.57266
69.060 10.272236
69.065 10.006284
69.070 10.260621
69.075 10.184731
69.080 9.888378
69.085 9.615471
69.090 9.99082
69.095 10.260033
69.100 10.409081
69.105 10.71112
69.110 10.901802
69.115 10.966866
69.120 10.772777
69.125 10.533705
69.130 10.681039
69.135 10.595891
69.140 10.256201
69.145 9.670114
69.150 9.553495
69.155 9.571447
69.160 9.484278
69.165 9.369136
69.170 9.525809
69.175 9.978748
69.180 10.574663
69.185 10.769969
69.190 11.106358
69.195 11.091717
69.200 10.532588
69.205 10.052764
69.210 9.584867
69.215 9.33627
69.220 9.007728
69.225 8.421051
69.230 8.173573
69.235 8.478839
69.240 8.399751
69.245 8.348944
69.250 8.826149
69.255 9.518722
69.260 9.868838
69.265 9.955873
69.270 9.86063
69.275 10.009795
69.280 9.986728
69.285 9.298441
69.290 8.738937
69.295 8.840586
69.300 8.869561
69.305 9.036638
69.310 9.761368
69.315 10.110435
69.320 10.090659
69.325 10.485853
69.330 10.426349
69.335 10.836102
69.340 10.930428
69.345 10.238107
69.350 10.22963
69.355 10.723245
69.360 10.643204
69.365 10.410641
69.370 9.826132
69.375 9.494516
69.380 9.567732
69.385 9.478275
69.390 9.145542
69.395 8.711155
69.400 8.989954
69.405 9.634407
69.410 9.888699
69.415 9.985723
69.420 9.821326
69.425 10.17129
69.430 10.560216
69.435 10.214205
69.440 9.855391
69.445 10.02923
69.450 9.787298
69.455 10.040566
69.460 10.14347
69.465 10.062081
69.470 10.213539
69.475 10.13816
69.480 10.139065
69.485 10.524327
69.490 10.198437
69.495 10.057693
69.500 10.16637
69.505 10.196484
69.510 10.48909
69.515 10.405954
69.520 10.028052
69.525 10.197112
69.530 9.89851
69.535 9.805835
69.540 9.448396
69.545 8.959332
69.550 8.673126
69.555 8.621178
69.560 8.560885
69.565 8.748818
69.570 8.738832
69.575 9.225457
69.580 9.299544
69.585 9.224201
69.590 8.940089
69.595 8.60485
69.600 8.667383
69.605 8.497409
69.610 8.275056
69.615 8.686244
69.620 8.849118
69.625 9.350128
69.630 9.374558
69.635 9.544371
69.640 9.88105
69.645 10.200138
69.650 10.190141
69.655 10.32252
69.660 10.252054
69.665 10.201311
69.670 9.625723
69.675 9.559381
69.680 9.268372
69.685 9.302453
69.690 9.448954
69.695 9.895865
69.700 10.479115
69.705 10.769078
69.710 10.624143
69.715 10.42056
69.720 10.098238
69.725 9.817209
69.730 9.207486
69.735 8.858116
69.740 8.992591
69.745 8.988065
69.750 9.357485
69.755 9.446255
69.760 9.26835
69.765 9.654094
69.770 9.595181
69.775 9.630672
69.780 9.382389
69.785 9.080273
69.790 8.872992
69.795 8.972349
69.800 8.811867
69.805 8.449527
69.810 8.235093
69.815 8.881804
69.820 9.022632
69.825 9.432893
69.830 9.177479
69.835 9.335752
69.840 9.82476
69.845 9.856434
69.850 9.510212
69.855 9.324562
69.860 9.355787
69.865 9.484356
69.870 9.231083
69.875 9.606272
69.880 9.898003
69.885 9.867581
69.890 9.937785
69.895 9.886661
69.900 10.612016
69.905 10.964435
69.910 10.555961
69.915 10.244672
69.920 10.304861
69.925 10.189369
69.930 9.717503
69.935 9.43303
69.940 9.223103
69.945 9.238983
69.950 9.268151
69.955 9.048628
69.960 9.062575
69.965 9.184204
69.970 9.003819
69.975 9.136497
69.980 9.38728
69.985 9.627636
69.990 9.922375
69.995 10.063851
70.000 9.699793
70.005 8.940807
70.010 8.270135
70.015 7.841582
70.020 7.500962
70.025 7.668452
70.030 7.831341
70.035 8.029295
70.040 8.112701
70.045 8.046134
70.050 8.368937
70.055 8.543501
70.060 8.188291
70.065 8.144876
70.070 8.600689
70.075 9.159781
70.080 9.464972
70.085 9.224309
70.090 9.350098
70.095 9.782125
70.100 9.66901
70.105 9.604569
70.110 9.576135
70.115 9.756633
70.120 9.786554
70.125 9.566264
70.130 9.251706
70.135 10.021396
70.140 10.429091
70.145 10.638875
70.150 10.599861
70.155 10.766157
70.160 10.677293
70.165 10.704173
70.170 10.249904
70.175 10.117743
70.180 9.791908
70.185 9.779248
70.190 9.950054
70.195 10.231833
70.200 10.261152
70.205 10.172724
70.210 10.240771
70.215 10.527431
70.220 10.265904
70.225 10.163626
70.230 10.051044
70.235 10.066077
70.240 10.008214
70.245 9.678811
70.250 9.562058
70.255 10.030367
70.260 10.143746
70.265 9.976923
70.270 9.852825
70.275 9.624427
70.280 9.76982
70.285 9.9497
70.290 9.677279
70.295 9.583836
70.300 9.712275
70.305 10.269174
70.310 10.476288
70.315 10.043251
70.320 9.84965
70.325 9.973454
70.330 9.605674
70.335 9.649417
70.340 8.948742
70.345 9.117059
70.350 9.626809
70.355 9.537354
70.360 9.761922
70.365 10.247956
70.370 10.324454
70.375 10.571133
70.380 10.712816
70.385 10.936452
70.390 11.050377
70.395 11.021499
70.400 10.479786
70.405 10.374025
70.410 10.806339
70.415 10.737598
70.420 10.624602
70.425 10.326187
70.430 10.198527
70.435 10.643299
70.440 10.553104
70.445 10.443377
70.450 10.096744
70.455 10.282798
70.460 10.244782
70.465 10.424543
70.470 9.957146
70.475 9.763493
70.480 9.893939
70.485 9.950361
70.490 9.766082
70.495 9.705992
70.500 10.028629
70.505 10.458182
70.510 10.118785
70.515 9.682739
70.520 9.584498
70.525 10.043626
70.530 10.039528
70.535 9.645608
70.540 9.879334
70.545 10.453562
70.550 10.418259
70.555 10.108565
70.560 9.824338
70.565 9.977099
70.570 9.54578
70.575 8.892618
70.580 8.659774
70.585 8.887092
70.590 9.159312
70.595 9.252447
70.600 9.339222
70.605 9.312963
70.610 9.631234
70.615 9.752435
70.620 9.887588
70.625 9.56165
70.630 9.296662
70.635 9.148088
70.640 9.846922
70.645 9.825227
70.650 9.300633
70.655 9.440956
70.660 9.617824
70.665 9.624271
70.670 9.498494
70.675 9.054596
70.680 9.191341
70.685 9.14996
70.690 9.172667
70.695 9.534726
70.700 9.378366
70.705 9.270999
70.710 9.196472
70.715 9.411861
70.720 9.175375
70.725 8.679651
70.730 8.51241
70.735 8.717381
70.740 9.229888
70.745 9.120729
70.750 8.888002
70.755 9.115439
70.760 9.49966
70.765 9.469371
70.770 9.378857
70.775 9.188384
70.780 9.366106
70.785 9.536392
70.790 9.489831
70.795 9.080112
70.800 9.00388
70.805 8.849663
70.810 9.174865
70.815 8.714933
70.820 9.32868
70.825 9.685467
70.830 9.682708
70.835 9.93671
70.840 9.886214
70.845 9.397824
70.850 9.546836
70.855 9.043046
70.860 8.559952
70.865 8.427912
70.870 8.152692
70.875 8.428963
70.880 8.786823
70.885 8.434982
70.890 8.05872
70.895 7.816042
70.900 8.254991
70.905 8.466911
70.910 8.205509
70.915 7.730287
70.920 8.277449
70.925 8.808322
70.930 9.250212
70.935 9.413713
70.940 9.453671
70.945 9.625004
70.950 9.813778
70.955 9.572768
70.960 9.432788
70.965 9.084426
70.970 8.951141
70.975 8.817644
70.980 8.899988
70.985 8.948032
70.990 9.110187
70.995 9.143163
71.000 9.283161
71.005 9.142111
71.010 8.897932
71.015 9.103851
71.020 9.153937
71.025 8.730402
71.030 8.718139
71.035 8.649286
71.040 8.667429
71.045 8.454493
71.050 7.895743
71.055 7.642002
71.060 7.903684
71.065 8.134063
71.070 7.957013
71.075 7.966074
71.080 8.133311
71.085 8.290545
71.090 8.799071
71.095 8.81614
71.100 8.552563
71.105 8.441245
71.110 8.503042
71.115 8.784625
71.120 8.748379
71.125 8.328601
71.130 7.957359
71.135 7.915906
71.140 7.94403
71.145 8.161819
71.150 8.561786
71.155 8.602781
71.160 8.746735
71.165 9.19803
71.170 9.555253
71.175 9.788385
71.180 9.566136
71.185 9.052664
71.190 8.804747
71.195 8.45657
71.200 8.240734
71.205 7.861938
71.210 7.850615
71.215 7.910461
71.220 8.457456
71.225 8.770345
71.230 8.730068
71.235 8.756585
71.240 8.608166
71.245 8.562786
71.250 8.403612
71.255 8.0739
71.260 8.157612
71.265 8.476027
71.270 8.525018
71.275 8.888983
71.280 8.936013
71.285 9.029155
71.290 9.102265
71.295 9.061914
71.300 9.017164
71.305 9.341329
71.310 9.068489
71.315 9.063271
71.320 9.083777
71.325 9.062327
71.330 8.988011
71.335 8.995672
71.340 8.788289
71.345 9.380047
71.350 9.614934
71.355 9.583738
71.360 9.47002
71.365 9.559374
71.370 9.193223
71.375 9.124979
71.380 8.760238
71.385 8.598417
71.390 8.815979
71.395 9.32466
71.400 9.648066
71.405 9.792532
71.410 9.629237
71.415 9.417358
71.420 9.599236
71.425 9.685942
71.430 9.401319
71.435 9.276711
71.440 9.198945
71.445 9.464779
71.450 9.611697
71.455 9.17073
71.460 8.667436
71.465 8.810153
71.470 9.116538
71.475 8.842288
71.480 8.507747
71.485 8.178313
71.490 8.382937
71.495 8.252216
71.500 8.007789
71.505 8.066625
71.510 8.799485
71.515 9.118889
71.520 9.244074
71.525 9.326353
71.530 9.144928
71.535 9.138656
71.540 8.471198
71.545 8.12801
71.550 7.809291
71.555 8.024246
71.560 8.191547
71.565 8.286659
71.570 8.339176
71.575 8.249046
71.580 8.326294
71.585 8.749331
71.590 8.434716
71.595 8.747252
71.600 8.966564
71.605 9.187849
71.610 9.309634
71.615 9.229963
71.620 8.957983
71.625 9.009466
71.630 8.631557
71.635 8.542847
71.640 8.472255
71.645 8.70294
71.650 8.730919
71.655 8.587389
71.660 8.729387
71.665 8.888629
71.670 8.904147
71.675 8.830462
71.680 9.088229
71.685 9.177249
71.690 9.445235
71.695 9.463581
71.700 9.544757
71.705 9.166326
71.710 9.105865
71.715 8.475355
71.720 8.706233
71.725 8.516335
71.730 8.351516
71.735 8.183341
71.740 8.073736
71.745 8.38678
71.750 8.524076
71.755 8.819611
71.760 9.095688
71.765 9.434445
71.770 9.57454
71.775 9.900979
71.780 10.108887
71.785 10.106051
71.790 9.817184
71.795 9.720007
71.800 9.354587
71.805 9.77808
71.810 9.664413
71.815 9.742724
71.820 9.675678
71.825 9.555305
71.830 9.598622
71.835 9.545233
71.840 9.209635
71.845 9.081378
71.850 8.960365
71.855 8.901682
71.860 8.687368
71.865 8.654384
71.870 8.892858
71.875 9.172091
71.880 9.207039
71.885 9.01253
71.890 8.984012
71.895 9.314408
71.900 9.105426
71.905 9.164774
71.910 9.337225
71.915 9.238222
71.920 9.042564
71.925 8.579381
71.930 8.346073
71.935 8.20735
71.940 7.620148
71.945 7.419873
71.950 7.637352
71.955 7.979571
71.960 8.704734
71.965 8.774508
71.970 9.128265
71.975 9.169635
71.980 9.167751
71.985 9.733739
71.990 9.705128
71.995 9.43926
72.000 9.344847
72.005 9.39603
72.010 9.456434
72.015 9.022694
72.020 8.340096
72.025 7.810391
72.030 8.138846
72.035 8.29052
72.040 8.586712
72.045 8.569613
72.050 9.219715
72.055 9.325377
72.060 9.961534
72.065 9.989076
72.070 10.129502
72.075 9.997572
72.080 10.062579
72.085 10.045314
72.090 9.950817
72.095 9.487246
72.100 9.199683
72.105 9.22174
72.110 8.954709
72.115 9.24888
72.120 9.290115
72.125 9.473285
72.130 9.528344
72.135 9.141008
72.140 8.830861
72.145 8.75458
72.150 8.636826
72.155 8.59391
72.160 8.658735
72.165 8.973186
72.170 9.227034
72.175 9.343494
72.180 9.393895
72.185 9.453098
72.190 9.672849
72.195 9.535437
72.200 9.212281
72.205 9.125523
72.210 9.24088
72.215 8.84052
72.220 7.970663
72.225 7.579159
72.230 8.173246
72.235 8.150467
72.240 8.169312
72.245 8.456754
72.250 9.034207
72.255 9.768848
72.260 9.739603
72.265 9.791696
72.270 10.004842
72.275 9.850608
72.280 9.952172
72.285 9.418094
72.290 9.191733
72.295 9.050059
72.300 8.990349
72.305 8.958817
72.310 8.986999
72.315 9.329293
72.320 9.696978
72.325 9.676787
72.330 9.599902
72.335 9.726258
72.340 9.885979
72.345 9.529005
72.350 9.362833
72.355 9.70057
72.360 10.105353
72.365 10.10383
72.370 9.755466
72.375 9.664931
72.380 9.612968
72.385 9.348549
72.390 8.96218
72.395 8.756054
72.400 8.709743
72.405 9.006469
72.410 9.441751
72.415 9.683344
72.420 9.488653
72.425 9.496563
72.430 9.326792
72.435 9.161778
72.440 9.39621
72.445 8.996233
72.450 8.597324
72.455 8.471836
72.460 8.294508
72.465 8.705187
72.470 8.841773
72.475 8.405393
72.480 8.402744
72.485 8.654974
72.490 8.890273
72.495 8.913722
72.500 8.675779
72.505 8.704768
72.510 8.998204
72.515 9.381636
72.520 9.686489
72.525 9.81129
72.530 10.100911
72.535 10.063914
72.540 9.631584
72.545 9.637714
72.550 9.044881
72.555 8.892868
72.560 9.030693
72.565 9.01811
72.570 9.120704
72.575 8.959832
72.580 8.932158
72.585 9.381365
72.590 9.235394
72.595 9.261483
72.600 9.274772
72.605 9.218862
72.610 9.783235
72.615 9.673219
72.620 9.513022
72.625 9.504872
72.630 9.799253
72.635 9.386787
72.640 9.373663
72.645 9.250648
72.650 9.231507
72.655 9.216852
72.660 8.920392
72.665 8.422235
72.670 8.798717
72.675 9.006374
72.680 9.217587
72.685 9.059483
72.690 9.33998
72.695 9.428511
72.700 9.817285
72.705 9.628078
72.710 9.234677
72.715 9.149657
72.720 9.197974
72.725 9.132314
72.730 9.096577
72.735 8.723528
72.740 8.632252
72.745 8.443091
72.750 8.447852
72.755 8.08761
72.760 8.118428
72.765 8.042107
72.770 8.345961
72.775 8.403689
72.780 8.318313
72.785 7.838818
72.790 8.00276
72.795 7.86872
72.800 7.557961
72.805 7.51722
72.810 7.391884
72.815 7.62258
72.820 7.817658
72.825 7.721017
72.830 7.532644
72.835 7.898578
72.840 8.344936
72.845 8.572345
72.850 8.934974
72.855 8.848622
72.860 9.504353
72.865 9.871885
72.870 9.980049
72.875 9.707891
72.880 9.56147
72.885 9.649683
72.890 9.345164
72.895 8.603154
72.900 8.420612
72.905 8.064291
72.910 7.69617
72.915 7.718713
72.920 7.340527
72.925 7.584752
72.930 7.920976
72.935 7.61014
72.940 7.961753
72.945 8.315148
72.950 8.408569
72.955 8.635742
72.960 8.66591
72.965 8.926472
72.970 8.736734
72.975 8.250424
72.980 8.279972
72.985 8.519522
72.990 8.785383
72.995 8.425025
73.000 8.315408
